# This file has been produced by extranormal (v 1.0.1 - February 23, 2017)
# O. Roudenko - Synchrotron SOLEIL. Covered by GPL licence.
#Data from HDF File: /nfs/ruche-rock/rock-soleil/com-rock/2021/Projets/20210209_Hilde/InSitu/10Ni-10Fe_50BN/10Ni-10Fe_50BN_afterTPR_RT/10Ni-10Fe_50BN_afterTPR_RT_00002.nxs to 10Ni-10Fe_50BN_afterTPR_RT_00202.nxs
#Time at start=2021-02-10 01:20:55.264
#Time from start (seconds)=505.393094115
#Sample temperature (C)=24.5
# Normalization -------------
# pivot spectrum: Pivot_Fe_10Ni-10Fe_50BN_RT_air_av2000_00001.txt
# E0=7112.0   Eshift=1.44560157145
# E0_pivot = 7112.0
# pre-edge params: from E0_pivot-140.0 to E0_pivot-20.0
# pre-edge range: [6972.0, 7092.0]
# post-edge params: from E0_pivot+100.0 to E0_pivot+1140.0
# post-edge range: [7212.0, 8250.0]
# I jump at E0_pivot = 1.2785415294
# shifted energy	normalized	reference	ref.derivative	I0
        6970  0.001758596     1.688756 -0.001386865     18814.05
        6972  0.001758596     1.688756 -0.001386865     18814.05
        6974  0.001637812     1.685832 -0.001570261     18821.77
        6976   0.00143592      1.68243  -0.00156844      18828.7
        6978  0.001275365     1.679609 -0.001603034     18836.51
        6980  0.001071133     1.676209 -0.001525228     18846.11
        6982 0.0009703328     1.673008 -0.001616045     18853.92
        6984 0.0008578552     1.670228 -0.001587901     18860.44
        6986 0.0007548331     1.666681 -0.001572033     18867.19
        6988 0.0005916008     1.663505 -0.001646509     18874.11
        6990 0.0004747351     1.660432   -0.0015757     18881.38
        6992 0.0003853377     1.657056 -0.001583784     18889.09
        6994 0.0003021299     1.654076 -0.001518142     18896.85
        6996 0.0001981815     1.650835 -0.001479812     18906.25
        6998 6.398979e-05     1.648287 -0.001528441     18914.56
        7000 -5.545521e-05     1.645218 -0.001536604     18921.95
        7002 -0.0001133902     1.641848  -0.00161567     18930.39
        7004 -0.0002200839     1.638542 -0.001553896     18938.88
        7006 -0.0002422005     1.635361  -0.00152902     18947.39
        7008 -0.0003076666     1.632786 -0.001552216     18955.32
        7010 -0.0004107913     1.629616 -0.001540842     18962.32
        7012 -0.0004936947     1.626125 -0.001587665     18971.17
        7014 -0.0005179244     1.623035 -0.001586947     18979.24
        7016 -0.0005896229     1.620085 -0.001495593      18986.9
        7018 -0.0006371222      1.61692 -0.001499683     18994.03
        7020 -0.0006554186      1.61416 -0.001553119     19001.31
        7022 -0.0006700314     1.611037 -0.001487121     19008.96
        7024 -0.0007762279      1.60766 -0.001533941     19017.11
        7026 -0.0008389096     1.605023 -0.001532025     19025.65
        7028 -0.0008711411     1.601888 -0.001484441     19034.21
        7030 -0.0008570338     1.598781 -0.001555139     19042.03
        7032 -0.0008819021     1.595785 -0.001529237     19049.44
        7034 -0.0008804798     1.592582 -0.001517957     19056.23
        7036 -0.0009055633     1.589654 -0.001537117     19063.63
        7038 -0.0009062403     1.586637 -0.001480242     19072.19
        7040 -0.0009692649     1.583488 -0.001528304     19080.34
        7042 -0.000998373      1.58074 -0.001516154     19089.33
        7044 -0.0009716755     1.577428 -0.001474398     19098.58
        7046 -0.0008891371     1.574508 -0.001476196     19106.84
        7048 -0.000910043     1.571692 -0.001435249     19114.77
        7050 -0.0008571028     1.568931 -0.001464019     19121.95
        7052 -0.0008121735     1.565946 -0.001533004     19130.01
        7054 -0.0007532835     1.562796 -0.001519296     19138.19
        7056 -0.0007242742     1.559428 -0.001516684     19146.76
        7058 -0.0006363698     1.556776 -0.001471961     19154.94
        7060 -0.0005689444     1.553813 -0.001458657     19162.22
        7062 -0.0004840772      1.55102 -0.001470484     19169.71
        7064 -0.0004268151     1.547759 -0.001472086     19177.26
        7066 -0.0003677117     1.545012  -0.00147881     19184.55
        7068 -0.0002293013     1.542036 -0.001446649     19192.06
        7070 -3.579656e-05      1.53919 -0.001476058     19199.81
        7072  9.72047e-05     1.536186  -0.00140899     19208.12
        7074 0.0002415801     1.533204 -0.001386837     19215.96
        7076 0.0003654562     1.530764 -0.001377904     19224.93
        7078 0.0005241967     1.528095 -0.001271605     19232.68
        7080  0.000723222     1.525163 -0.001312176     19241.47
        7082  0.001024455     1.523031 -0.001316318     19249.85
        7084  0.001295237     1.520267 -0.001276304     19257.51
        7086  0.001593364     1.517565 -0.001326049     19264.88
        7088  0.001911969     1.514952  -0.00128876     19271.83
        7090    0.0023038     1.512423 -0.001173852     19280.05
        7092  0.002780537     1.509956 -0.001088151     19288.29
        7094  0.003388596     1.508174 -0.001047617     19296.81
        7096   0.00409867     1.506247 -0.0008219438     19303.89
        7098  0.004921463     1.504042 -0.0007322948      19311.2
        7100  0.005950316     1.503381 -0.0005981887     19319.42
      7100.2    0.0060757     1.503281 -0.0005604453     19320.24
      7100.4  0.006201084     1.503182 -0.000522702     19321.07
      7100.6  0.006326468     1.503082 -0.0004849587     19321.89
      7100.8  0.006451852     1.502983 -0.0004472153     19322.71
        7101  0.006577236     1.502883 -0.000409472     19323.54
      7101.2  0.006702619     1.502783 -0.0003717287     19324.36
      7101.4  0.006828003     1.502684 -0.0003339853     19325.18
      7101.6   0.00698743     1.502675 -0.0002951243     19325.83
      7101.8  0.007154135      1.50274  0.000339454     19326.63
        7102  0.007315973     1.502877 0.0008946586      19327.3
      7102.2  0.007473302     1.503042  0.001124551     19327.97
      7102.4  0.007643013      1.50339 0.0008851539     19328.52
      7102.6   0.00780212     1.503639 0.0002640062     19329.21
      7102.8  0.007957207     1.503586 -0.0001048268     19330.01
        7103  0.008131945     1.503253 -0.0002450873     19330.67
      7103.2  0.008311212     1.503307 -0.000392753     19331.35
      7103.4  0.008514022     1.503443 -0.0002824991     19332.21
      7103.6  0.008706347     1.503271 -0.0006099304     19333.16
      7103.8  0.008929204     1.503027 -0.001001191     19334.19
        7104  0.009143748     1.502819 -0.001104366     19335.09
      7104.2  0.009366058     1.502642 -0.0005730814     19335.89
      7104.4  0.009577351     1.502388 -1.384793e-05     19336.65
      7104.6   0.00982557     1.502569  0.000687664     19337.45
      7104.8   0.01007053     1.502808  0.001567096      19338.2
        7105   0.01035482     1.503192  0.002064562      19339.1
      7105.2   0.01065769     1.503642   0.00270575     19339.91
      7105.4   0.01096401     1.504221  0.003159968     19340.77
      7105.6   0.01128196     1.504972  0.003105296     19341.63
      7105.8   0.01159813      1.50572  0.002627838     19342.34
        7106   0.01194025     1.506126  0.002299657     19343.18
      7106.2   0.01230492     1.506323  0.002289523     19343.81
      7106.4   0.01267578     1.506812  0.002735613     19344.51
      7106.6    0.0130743     1.507552  0.003312479     19345.23
      7106.8   0.01349692     1.508314  0.003785195     19346.03
        7107   0.01394628     1.508973  0.003771232     19346.84
      7107.2   0.01442328      1.50984  0.003376949     19347.72
      7107.4   0.01493425     1.510569  0.002749641      19348.7
      7107.6   0.01546898     1.511016  0.001954673     19349.56
      7107.8   0.01604855     1.511173  0.001976394     19350.38
        7108   0.01669565     1.511404  0.003103855     19351.03
      7108.2   0.01738579      1.51215  0.005606948     19351.54
      7108.4   0.01812755     1.513499  0.008349332     19352.06
      7108.6   0.01895242     1.515658   0.01085661      19352.6
      7108.8   0.01985586     1.518083    0.0129466     19353.04
        7109   0.02084164     1.520835   0.01386427     19353.43
      7109.2   0.02194702     1.523856    0.0148128     19353.85
      7109.4   0.02320111      1.52675   0.01621398     19354.11
      7109.6   0.02464527     1.529934   0.01906143     19354.38
      7109.8   0.02629905     1.533807     0.023551      19354.5
        7110   0.02822035     1.539105   0.02971879     19354.37
      7110.2   0.03054934      1.54559   0.03797766     19354.24
      7110.4   0.03336755     1.553709   0.04818182     19353.87
      7110.6   0.03683285     1.564189    0.0616701     19353.47
      7110.8   0.04124248     1.577651   0.07851877     19352.79
        7111   0.04697763     1.594927   0.09725061     19351.72
      7111.2   0.05424795     1.616524    0.1180149     19350.55
      7111.4   0.06323652     1.641989    0.1382781     19349.21
      7111.6   0.07432756     1.672063     0.154548     19347.92
      7111.8   0.08741259     1.705549    0.1650857     19346.53
        7112    0.1017606     1.740162    0.1666434     19345.23
      7112.2    0.1166821     1.774058    0.1602806     19343.95
      7112.4    0.1315485     1.805377    0.1485741     19342.46
      7112.6    0.1457877     1.833773    0.1343893     19341.04
      7112.8    0.1591075     1.859021    0.1208825     19339.71
        7113    0.1715087     1.881569    0.1081337     19338.37
      7113.2     0.183097     1.902083    0.0978503     19337.17
      7113.4     0.193986      1.92028   0.08954204     19336.25
      7113.6    0.2045055     1.937301   0.08306942     19335.73
      7113.8    0.2147581     1.953203   0.07769918     19335.19
        7114    0.2244316     1.968539   0.07298962     19335.23
      7114.2    0.2332177      1.98244   0.06862402     19335.24
      7114.4    0.2411433     1.995693   0.06401837     19335.37
      7114.6    0.2481528     2.008102   0.05969678      19335.6
      7114.8    0.2540793     2.019754   0.05425728     19335.81
        7115    0.2589446     2.030197   0.04847007     19336.08
      7115.2    0.2630176     2.039099      0.04242     19336.43
      7115.4    0.2665351     2.046878   0.03656769     19336.94
      7115.6    0.2696152      2.05369   0.03071453      19337.4
      7115.8    0.2724137     2.059451   0.02549287     19337.86
        7116    0.2750802     2.063671    0.0212118     19338.44
      7116.2    0.2777534     2.067272   0.01817484     19339.08
      7116.4    0.2805296     2.070659   0.01811895     19339.42
      7116.6    0.2835074     2.073991   0.01981153     19339.73
      7116.8    0.2867994     2.078166   0.02308278     19339.81
        7117    0.2904941     2.083122   0.02809227     19339.89
      7117.2     0.294704     2.089125   0.03500282     19340.09
      7117.4    0.2995407     2.096465     0.044204     19340.27
      7117.6    0.3050645     2.106168   0.05487324     19340.17
      7117.8    0.3113207     2.118485   0.06616693     19340.01
        7118    0.3183929     2.133024   0.07709018     19339.96
      7118.2    0.3264542     2.149399   0.08777375     19339.86
      7118.4    0.3355156      2.16784   0.09730564      19339.8
      7118.6    0.3453407     2.188704    0.1058169     19339.67
      7118.8    0.3559715     2.210868    0.1131449     19339.61
        7119    0.3677138     2.234052     0.117897     19339.63
      7119.2    0.3804858     2.258356    0.1217255     19339.52
      7119.4    0.3938954     2.283022    0.1256294     19339.42
      7119.6    0.4079285     2.308249    0.1288123     19339.21
      7119.8     0.422826     2.334556    0.1316076     19338.86
        7120    0.4383293     2.361406    0.1325571     19338.69
      7120.2    0.4538503     2.388308    0.1312386     19338.69
      7120.4    0.4690938     2.414295    0.1299851     19338.35
      7120.6    0.4839338     2.439547    0.1279591     19337.89
      7120.8    0.4981783     2.465394     0.126853     19337.61
        7121    0.5118235     2.490675    0.1264057      19337.5
      7121.2    0.5250057     2.515777    0.1243265     19337.52
      7121.4    0.5378056     2.540671    0.1215853     19337.28
      7121.6    0.5504277     2.564855    0.1186057     19337.01
      7121.8    0.5633546     2.587943    0.1143399     19336.74
        7122    0.5768594     2.610662    0.1088363     19336.58
      7122.2    0.5906928     2.632143    0.1020085     19336.43
      7122.4    0.6048127     2.651924   0.09512408     19336.16
      7122.6    0.6195803      2.66955   0.08959893     19335.61
      7122.8    0.6350852     2.686761   0.08195241     19335.09
        7123    0.6507738     2.703822   0.07606316     19334.77
      7123.2    0.6664569     2.717486   0.07360673     19334.41
      7123.4    0.6823902       2.7304   0.06907994     19333.99
      7123.6    0.6987037     2.745646   0.06649853     19333.66
      7123.8    0.7149676     2.759086   0.06322449     19333.26
        7124    0.7309816     2.770685   0.05649985      19332.9
      7124.2    0.7469345      2.78098   0.05167084     19332.65
      7124.4    0.7628856     2.790846   0.04859981     19332.24
      7124.6    0.7785728     2.800423   0.04794726     19331.73
      7124.8    0.7937668     2.809565   0.04734941     19331.41
        7125    0.8085202     2.819338   0.04616392     19331.19
      7125.2    0.8228465     2.828726   0.04481502      19330.8
      7125.4    0.8368216     2.837354   0.04356634     19330.02
      7125.6    0.8506102     2.845417   0.04263923     19329.13
      7125.8    0.8642326     2.854191    0.0406978     19328.44
        7126    0.8775823     2.862837   0.03902054     19327.76
      7126.2    0.8907136     2.869912   0.03835698     19327.07
      7126.4     0.903862     2.876633   0.03900105     19326.12
      7126.6    0.9168927     2.884877   0.03936809     19325.15
      7126.8    0.9293645     2.894038   0.04038608     19324.26
        7127    0.9413864     2.901407   0.04332902     19323.24
      7127.2    0.9532596     2.908942   0.04518367     19322.27
      7127.4    0.9648193      2.91954   0.04870571     19321.47
      7127.6    0.9758135     2.930185   0.05403272     19320.82
      7127.8    0.9863903     2.940371   0.05883995      19320.4
        7128     0.996872     2.952168   0.06520294     19320.17
      7128.2      1.00721     2.966612   0.06924693     19319.95
      7128.4      1.01725     2.982347   0.07260765     19319.59
      7128.6     1.027044     2.995769   0.07157993     19319.14
      7128.8     1.036722     3.010255   0.06598093     19318.88
        7129     1.046289     3.023876   0.06513664     19318.56
      7129.2     1.055721     3.035132   0.06361042     19318.23
      7129.4     1.065034     3.047878   0.05832654      19317.8
      7129.6     1.073977     3.061143   0.05299696     19316.98
      7129.8     1.082444     3.070537   0.05198896      19316.2
        7130     1.090482     3.077529   0.05144826     19315.61
      7130.2      1.09805     3.089469   0.05200704     19314.88
      7130.4     1.104981     3.102302   0.04835557     19313.81
      7130.6     1.111285     3.112143   0.04320791     19312.74
      7130.8     1.117227     3.116214   0.03716017      19311.8
        7131     1.122997     3.124036   0.03152376     19310.57
      7131.2     1.128647      3.13203   0.02593902     19309.34
      7131.4     1.134304     3.137362   0.01176673     19308.16
      7131.6     1.140296     3.136965 -0.006867934     19306.92
      7131.8      1.14672     3.133449  -0.02329179     19305.75
        7132     1.153367     3.126535  -0.03233943     19304.86
      7132.2     1.159959     3.118728  -0.04346281     19304.09
      7132.4     1.166386     3.111094  -0.05122872     19303.51
      7132.6      1.17242     3.098679  -0.05895969     19303.16
      7132.8     1.177514     3.085552  -0.06561664     19302.81
        7133     1.181435      3.07156  -0.06744312     19302.79
      7133.2     1.183883       3.0586   -0.0687847     19303.04
      7133.4     1.184717     3.044724  -0.07281573     19303.42
      7133.6     1.183921     3.030525  -0.07450376     19304.15
      7133.8     1.181561     3.013308  -0.06900302     19305.08
        7134     1.177761     2.998997  -0.05877051     19306.09
      7134.2     1.172872     2.989522  -0.04778818     19307.17
      7134.4       1.1671     2.983508  -0.04556681     19308.25
      7134.6     1.160514     2.975077  -0.04360615     19309.33
      7134.8     1.153516     2.962544  -0.04344427     19310.49
        7135     1.146574     2.954637   -0.0415778     19311.54
      7135.2     1.139777     2.948753  -0.03565296     19312.56
      7135.4     1.132957     2.941815  -0.03267999     19313.68
      7135.6     1.126254     2.934021  -0.02586972      19314.7
      7135.8     1.120009     2.928493  -0.02273335     19315.62
        7136     1.114131     2.928057  -0.01965639     19316.54
      7136.2     1.108433     2.923628   -0.0153653     19317.37
      7136.4     1.103043     2.918296  -0.01562629     19317.63
      7136.6     1.098072     2.916201  -0.01283401     19317.06
      7136.8     1.093444     2.915556 -0.006860702     19314.87
        7137     1.089125     2.913361 -0.002180304      19309.1
      7137.2      1.08514     2.912808 -0.001144888     19297.07
      7137.4      1.08142     2.914456 -0.003379385     19275.68
      7137.6     1.077933      2.91464 0.0004855063     19242.46
      7137.8     1.074545     2.910658 -0.0005388741     19198.46
        7138     1.071186     2.913196   0.00360143     19149.83
      7138.2     1.067756     2.914025   0.01370947     19104.92
      7138.4     1.064246     2.917521   0.01101592     19073.27
      7138.6     1.060844     2.921625   0.01218174     19062.21
      7138.8     1.057688     2.922009   0.01467396     19070.58
        7139     1.054872     2.923771   0.01716935      19092.9
      7139.2     1.052394      2.92926   0.02289941     19123.47
      7139.4     1.050271     2.935361   0.02945096     19157.03
      7139.6     1.048428     2.940328   0.02774792     19190.82
      7139.8     1.046784     2.947331   0.02498384     19223.65
        7140      1.04526     2.951459   0.02550301     19254.06
      7140.2     1.043901     2.955348   0.01941113     19278.86
      7140.4     1.042626     2.960731   0.01867001     19295.58
      7140.6     1.041352      2.96286   0.01944622     19305.66
      7140.8     1.040087     2.966395   0.01765518     19312.06
        7141      1.03881     2.970905   0.01847192     19315.93
      7141.2     1.037516     2.974855   0.01476782     19317.45
      7141.4     1.036203     2.977638   0.01142007     19315.92
      7141.6     1.034833     2.978209  0.007275089      19309.5
      7141.8     1.033358     2.980041  0.004302673     19295.53
        7142     1.031778     2.980675  0.002626339     19270.28
      7142.2      1.03003      2.98108 -0.007469878     19231.37
      7142.4     1.028127      2.98031  -0.01254496     19181.41
      7142.6     1.026158     2.974065  -0.01225465     19127.72
      7142.8     1.024167     2.970639  -0.01354703     19080.72
        7143     1.022305     2.971276 -0.009101693     19052.16
      7143.2     1.020676     2.969472 -0.007027413     19048.45
      7143.4     1.019264     2.966783 -0.009127869     19068.33
      7143.6     1.018013     2.965017 -0.008283644     19107.22
      7143.8     1.016895     2.963974 -0.004818978     19156.11
        7144     1.015953     2.962845 -0.004127963     19203.96
      7144.2     1.015221     2.962928 -0.002554161     19245.45
      7144.4     1.014762     2.961715  0.002455358     19278.62
      7144.6     1.014483     2.961931   0.00447048     19300.65
      7144.8     1.014408      2.96481   0.00749224     19313.85
        7145     1.014497     2.966505  0.008422421     19322.28
      7145.2     1.014665     2.967709  0.006183617     19328.37
      7145.4     1.014923     2.968669  0.007312814     19333.23
      7145.6      1.01524     2.969757  0.005594354     19337.19
      7145.8     1.015579     2.972355  0.005594872     19340.54
        7146     1.015925     2.972184   0.00699098      19343.3
      7146.2     1.016249     2.973145  0.008089667     19345.87
      7146.4     1.016505     2.975349   0.01093032     19348.18
      7146.6     1.016611     2.978827   0.01202807     19350.44
      7146.8      1.01657     2.980928   0.01483678     19352.58
        7147     1.016387     2.982767   0.01598567     19354.46
      7147.2     1.016011     2.987219   0.01916012     19356.39
      7147.4      1.01543     2.991615   0.02358365      19358.2
      7147.6     1.014592     2.996256   0.02626098     19359.89
      7147.8     1.013564     3.001634    0.0282097     19361.57
        7148      1.01237     3.008228   0.02847268     19363.24
      7148.2     1.010917     3.014183    0.0281886     19364.84
      7148.4     1.009272     3.019035   0.02650052     19366.52
      7148.6      1.00746     3.024185   0.02491937     19368.23
      7148.8     1.005475     3.029428    0.0248794     19369.78
        7149     1.003361     3.034118   0.02493784     19371.36
      7149.2     1.001142     3.038938   0.02359704        19373
      7149.4    0.9988717     3.044135   0.02333719     19374.49
      7149.6    0.9965776     3.048306   0.02312136      19375.9
      7149.8    0.9942538     3.052788   0.01880878     19377.29
        7150    0.9919625     3.057435   0.01434278     19378.61
      7150.2    0.9897056     3.059182   0.01094988     19379.87
      7150.4    0.9874387      3.05978   0.01004144     19381.05
      7150.6    0.9852383     3.061548   0.01046486     19382.06
      7150.8    0.9831438     3.065468     0.010969     19383.16
        7151    0.9811295     3.067554   0.01376204     19384.35
      7151.2    0.9792035     3.068555   0.01344174     19385.45
      7151.4    0.9774326     3.072558   0.01177869     19386.49
      7151.6    0.9758657     3.076222   0.01283623     19387.51
      7151.8    0.9744499     3.076977   0.00844823     19388.37
        7152    0.9731282     3.078824  0.004955043      19389.1
      7152.2     0.971976     3.079316  0.008797827     19390.04
      7152.4    0.9710495     3.080186  0.006626913     19390.93
      7152.6    0.9702639     3.084015  0.007582266     19391.87
      7152.8    0.9696247     3.084126  0.007840572     19392.97
        7153    0.9691744     3.085382  0.004202254     19393.84
      7153.2    0.9689305     3.086458  0.006161807     19394.63
      7153.4    0.9688454     3.087377  0.008445298     19395.45
      7153.6    0.9689251     3.089055  0.007456384     19396.42
      7153.8    0.9691779     3.092138  0.006867385     19397.25
        7154    0.9695631     3.092423  0.004075628      19398.1
      7154.2    0.9700896     3.092871 -0.002790553     19399.01
      7154.4    0.9707561     3.092316 -0.004317265     19399.89
      7154.6    0.9715437     3.089906 -0.002347084     19400.77
      7154.8    0.9724093      3.08897 -0.003595171     19401.68
        7155    0.9734173     3.090993 -0.009653421     19402.76
      7155.2    0.9745163     3.089439  -0.01266624     19403.91
      7155.4    0.9756532     3.082183  -0.01182685     19404.83
      7155.6    0.9768938     3.078837   -0.0103822     19405.81
      7155.8    0.9781896     3.081532  -0.00478137     19406.69
        7156    0.9794798     3.081134 -0.0005942792     19407.37
      7156.2    0.9808273     3.078358 -0.007241592     19408.15
      7156.4    0.9822489     3.078361  -0.01365478     19408.85
      7156.6    0.9836848     3.075739  -0.01390812     19409.62
      7156.8    0.9851289      3.07021  -0.01498708     19410.47
        7157    0.9865289     3.067232  -0.01283038     19411.48
      7157.2    0.9879262     3.066371 -0.001912051     19412.38
      7157.4    0.9893516     3.065474 -0.002272829     19413.22
      7157.6    0.9907261      3.06868 -0.005888248     19414.06
      7157.8      0.99203     3.065413 -0.004415518     19414.97
        7158    0.9932601     3.061661 -0.004792819     19415.58
      7158.2     0.994422     3.061942  -0.00111566     19416.25
      7158.4     0.995535     3.064846 1.059592e-05     19417.01
      7158.6    0.9965772     3.064521 -0.003028417     19417.75
      7158.8    0.9975865     3.061669 -0.008712906     19418.23
        7159    0.9985577     3.059519  -0.00649752      19418.9
      7159.2    0.9994484     3.057876  0.003370828     19419.46
      7159.4      1.00028     3.059323  0.005354157        19420
      7159.6     1.001009     3.064366  0.002413036     19420.62
      7159.8     1.001673     3.063802 -0.001430518     19421.26
        7160     1.002221     3.059806  -0.01067738     19422.16
      7160.2     1.002685     3.058178  -0.01010339     19423.07
      7160.4     1.003091     3.055824 -0.007437285     19423.83
      7160.6     1.003462      3.05572  -0.00842097     19424.63
      7160.8     1.003751     3.053856  -0.00406348     19425.39
        7161     1.003935     3.051442 -0.004353103     19426.24
      7161.2     1.004014     3.052573  -0.00328009     19427.02
      7161.4      1.00404     3.052237   0.00160236     19427.69
      7161.6     1.004012     3.051232 0.0004484461     19428.36
      7161.8     1.003856     3.052723  -0.00229815     19428.93
        7162     1.003585     3.052932 -0.003967615     19429.42
      7162.2     1.003234     3.050399 -0.007523601     19429.76
      7162.4     1.002802     3.048058 -0.009430687      19430.1
      7162.6     1.002299     3.046705 -0.005897505     19430.54
      7162.8     1.001742     3.045387 -0.001166595     19430.88
        7163     1.001087     3.045681 -0.003102244     19431.27
      7163.2     1.000321     3.047125 -0.006813033     19431.61
      7163.4    0.9995033     3.044223 -0.008247881     19431.91
      7163.6    0.9986513     3.039937  -0.01140394     19432.28
      7163.8    0.9977189     3.039082 -0.008508424     19432.75
        7164    0.9967049     3.038002 -0.006267218     19433.24
      7164.2    0.9956292     3.037416 -0.006803622     19433.79
      7164.4    0.9945842     3.034923 -0.007225648     19434.43
      7164.6    0.9934882     3.033639 -0.007650853     19434.98
      7164.8    0.9923135     3.032221 -0.007731577     19435.42
        7165    0.9911074     3.031295 -0.008502203     19435.78
      7165.2    0.9898986     3.028738  -0.00555997     19436.01
      7165.4    0.9887573     3.026838 -0.002121682     19436.46
      7165.6    0.9876508     3.027773 -0.003318377     19436.99
      7165.8    0.9865816     3.029598 -0.005462435      19437.7
        7166    0.9855276     3.026083 -0.006954121     19438.13
      7166.2    0.9845297     3.022468 -0.008304867     19438.26
      7166.4    0.9836018      3.02221 -0.002717502     19438.59
      7166.6    0.9827366     3.022954 0.0001655068     19438.98
      7166.8    0.9819865     3.023909 -0.001838132     19439.22
        7167    0.9812495       3.0226 -0.004749927      19439.2
      7167.2    0.9805461     3.020739 -0.009223248     19439.33
      7167.4     0.979943     3.019154 -0.007001066     19439.64
      7167.6    0.9794083     3.016531  -0.00216685     19439.72
      7167.8    0.9789515     3.016999 -0.002380714     19439.81
        7168    0.9785863     3.019006  -0.00265371     19440.02
      7168.2     0.978283      3.01725 -0.004994978     19440.41
      7168.4    0.9779788     3.014408 -0.006980929     19440.96
      7168.6    0.9777452     3.013003 -0.002466711     19441.52
      7168.8    0.9775709     3.013421  0.001373891      19442.1
        7169    0.9774807     3.015276  0.003303966     19442.85
      7169.2    0.9774436     3.015507 -0.002787422     19443.53
      7169.4    0.9774443     3.015647 -0.007108572     19444.12
      7169.6    0.9774987     3.011191  -0.00733361     19444.63
      7169.8    0.9776243     3.009589  -0.01373037     19445.26
        7170    0.9777918      3.00964  -0.01097358     19445.75
      7170.2     0.978011     3.004662 -0.008947028     19446.24
      7170.4    0.9783152     3.002412  -0.01172529     19446.76
      7170.6    0.9786564     3.002432  -0.00718851     19447.31
      7170.8    0.9790572      3.00026  -0.00617175     19447.89
        7171    0.9794656     2.998911 -0.006316913     19448.49
      7171.2    0.9798963     2.997475 -0.006819531     19449.26
      7171.4      0.98038     2.997378  -0.01121778     19450.16
      7171.6    0.9808353     2.994804  -0.01633752     19450.92
      7171.8    0.9813114     2.989937  -0.01846134     19451.63
        7172    0.9818272     2.984405  -0.01289858     19452.47
      7172.2    0.9823553     2.982609  -0.01069757     19453.39
      7172.4    0.9828917     2.984485  -0.01013815     19454.24
      7172.6    0.9834505     2.981379  -0.01004748     19454.93
      7172.8    0.9840233     2.976294  -0.01448949     19455.62
        7173    0.9845505     2.974571  -0.01291136     19456.44
      7173.2    0.9850351     2.972894  -0.01164417     19457.17
      7173.4    0.9855606      2.97105  -0.01726386     19457.69
      7173.6    0.9861011     2.966979  -0.01952712     19458.29
      7173.8    0.9866134      2.96076  -0.01936278     19459.02
        7174    0.9871669     2.957272  -0.01683545     19459.58
      7174.2    0.9877226      2.95556   -0.0152792     19460.23
      7174.4    0.9882709     2.953511  -0.01109842        19461
      7174.6    0.9888365     2.948537  -0.01243668     19461.74
      7174.8    0.9893922     2.948393  -0.01358952     19462.35
        7175    0.9899618      2.94561  -0.01409945     19462.99
      7175.2    0.9905307     2.942639  -0.01636005     19463.88
      7175.4    0.9910825     2.937257  -0.02031621     19464.68
      7175.6    0.9916043     2.935305  -0.02196963     19465.57
      7175.8    0.9921141     2.929358   -0.0191135     19466.41
        7176    0.9925124     2.925063  -0.02177074     19467.11
      7176.2     0.992853     2.921966   -0.0202148     19467.77
      7176.4    0.9931323     2.917889  -0.02180787     19468.52
      7176.6    0.9933417     2.913186  -0.02175695     19468.95
      7176.8    0.9934828     2.907617  -0.01872379     19469.48
        7177    0.9935559     2.904561  -0.01518799     19470.06
      7177.2    0.9935208      2.90291  -0.01345056     19470.54
      7177.4    0.9934403     2.901035  -0.01586718     19471.25
      7177.6    0.9933166     2.896857  -0.01591748     19472.14
      7177.8    0.9931291     2.891867  -0.01472582     19472.99
        7178    0.9928914     2.890176  -0.01249637     19474.03
      7178.2    0.9926296     2.889255 -0.009543997     19475.11
      7178.4    0.9923605      2.88686  -0.01090878     19476.06
      7178.6    0.9920798     2.884232  -0.01397971     19476.97
      7178.8    0.9917951     2.881449  -0.01545197     19477.72
        7179    0.9914964     2.878071  -0.01396862     19478.32
      7179.2    0.9911616     2.874498  -0.01061063      19478.9
      7179.4    0.9908039     2.873057  -0.00495459      19479.6
      7179.6    0.9905053      2.87296 -0.003636222     19480.19
      7179.8    0.9902078     2.874107 -0.005754287     19480.83
        7180    0.9898882     2.871589 -0.005997431     19481.58
      7180.2    0.9895879     2.868454 -0.006212416     19482.11
      7180.4    0.9893004     2.868162 -0.001754409     19482.56
      7180.6    0.9890589     2.869137  0.001421484     19483.08
      7180.8    0.9888934     2.870185  -0.00209167     19483.57
        7181    0.9887264     2.869591 -0.004149296     19484.12
      7181.2    0.9885559     2.866489 -0.004870105     19484.64
      7181.4    0.9884581     2.865818 -0.004460299      19485.6
      7181.6    0.9883941     2.866289 -0.0009328959     19486.54
      7181.8    0.9883682     2.866023  0.002655294      19487.3
        7182    0.9883781     2.865742  0.004151423     19488.27
      7182.2    0.9884392     2.867942  0.003504581     19489.13
      7182.4    0.9885361     2.869611 0.0008278144     19489.75
      7182.6    0.9886655     2.868826 -0.002747961     19490.42
      7182.8    0.9888324     2.866405 -0.005087133        19491
        7183    0.9890523     2.865744 -0.003464007     19491.68
      7183.2    0.9893075     2.865541  0.001431471     19492.49
      7183.4    0.9896072     2.866055  0.003357982     19493.36
      7183.6    0.9899741      2.86755  0.007714163     19494.25
      7183.8    0.9903868      2.86843  0.008599096     19495.05
        7184    0.9908352     2.871712  0.005484817     19495.82
      7184.2    0.9913196     2.872934  0.007637813     19496.47
      7184.4    0.9918598     2.871938  0.009188911      19497.3
      7184.6     0.992402      2.87454   0.01319262     19498.11
      7184.8    0.9929406     2.879063   0.01528104     19498.74
        7185    0.9935128     2.883488   0.01220672     19499.58
      7185.2    0.9941337     2.884163  0.008737229     19500.34
      7185.4     0.994778     2.884306  0.005955591     19501.16
      7185.6    0.9954504     2.886053  0.006053676      19502.1
      7185.8    0.9961336     2.888253  0.007011993        19503
        7186    0.9968374     2.889006  0.009284788     19504.01
      7186.2     0.997525     2.889915  0.009340012        19505
      7186.4    0.9982291     2.893481  0.009803418     19505.85
      7186.6    0.9988963     2.895725   0.01389733     19506.71
      7186.8    0.9995278     2.896848   0.01493155     19507.62
        7187      1.00014     2.901033   0.01440578     19508.56
      7187.2     1.000766     2.905426   0.01596132     19509.27
      7187.4     1.001384     2.907249   0.01340922        19510
      7187.6     1.001991     2.909617  0.009103955     19510.72
      7187.8     1.002583     2.911761   0.01209909     19511.32
        7188     1.003172     2.912709   0.01542923     19512.05
      7188.2      1.00376     2.916929   0.01462079     19512.87
      7188.4     1.004313     2.921961   0.01526342     19513.54
      7188.6     1.004819     2.923457   0.01221043     19514.21
      7188.8     1.005291      2.92492  0.007717543     19514.91
        7189     1.005753     2.926697   0.01086974     19515.56
      7189.2     1.006219     2.928135   0.01409394     19516.38
      7189.4     1.006684     2.932153   0.01315206     19517.21
      7189.6     1.007143     2.936195   0.01620117     19518.17
      7189.8     1.007591     2.937219   0.01465762      19519.1
        7190     1.008047     2.941096    0.0142582     19519.81
      7190.2      1.00849     2.943879    0.0175636     19520.69
      7190.4     1.008896     2.947602   0.01523816     19521.34
      7190.6     1.009297      2.95127   0.01630127      19522.2
      7190.8     1.009706     2.953286   0.01587819     19523.17
        7191     1.010128      2.95692   0.01368889     19524.01
      7191.2     1.010569     2.960304   0.01381938     19524.85
      7191.4     1.011009     2.962221   0.01006631     19525.59
      7191.6     1.011494     2.964342   0.01021875     19526.45
      7191.8     1.011946     2.964973   0.01496106     19527.17
        7192     1.012409     2.968479   0.01805417     19527.95
      7192.2     1.012874      2.97419   0.01826974     19528.85
      7192.4     1.013341     2.978785   0.01420012     19529.66
      7192.6     1.013774     2.979589   0.01155908     19530.59
      7192.8     1.014204     2.979839   0.01103738     19531.63
        7193      1.01468     2.983437   0.01102972     19532.53
      7193.2     1.015166     2.987615  0.009043059     19533.49
      7193.4     1.015666     2.988413  0.004938389     19534.44
      7193.6     1.016174     2.987074 0.0005657414     19535.24
      7193.8     1.016663     2.987388 0.0007176455     19535.99
        7194     1.017142     2.988068  0.002064573     19536.67
      7194.2      1.01765     2.988987   0.00182789     19537.59
      7194.4     1.018177     2.988725  0.001879081     19538.64
      7194.6     1.018698      2.98885  0.002552704     19539.49
      7194.8     1.019233     2.989571  0.008235774     19540.28
        7195     1.019722     2.991029   0.01163156     19540.89
      7195.2     1.020234     2.995314  0.007491818     19541.58
      7195.4     1.020748     2.998155  0.003765998     19542.42
      7195.6     1.021239     2.995564 -0.002463759     19543.23
      7195.8     1.021745     2.994042 -0.008532128     19544.07
        7196     1.022301     2.993343 -0.006089165        19545
      7196.2      1.02284     2.991329 -0.007979446     19545.89
      7196.4     1.023402     2.990693  -0.01477605     19546.84
      7196.6     1.023935     2.987658   -0.0195565     19547.68
      7196.8     1.024436     2.981522  -0.02104355      19548.6
        7197     1.024953     2.975684  -0.02014249     19549.62
      7197.2      1.02546     2.973858  -0.01701555     19550.48
      7197.4     1.025957     2.971544   -0.0137393     19551.35
      7197.6     1.026501      2.96791  -0.01527162     19552.37
      7197.8     1.027039     2.964693  -0.01313737     19553.31
        7198      1.02754     2.961641   -0.0114506     19554.22
      7198.2     1.028078     2.961034  -0.01161096     19555.18
      7198.4     1.028603     2.958749  -0.01168305        19556
      7198.6     1.029123     2.955404  -0.01841624     19556.71
      7198.8     1.029693     2.952294   -0.0182539     19557.49
        7199     1.030236     2.946301  -0.01450415     19558.36
      7199.2     1.030737     2.944146  -0.01806274     19559.09
      7199.4     1.031252     2.943801   -0.0174692     19559.74
      7199.6     1.031756     2.937844   -0.0194582      19560.5
      7199.8     1.032275     2.932326  -0.02348575     19561.36
        7200     1.032782      2.92858  -0.01863742     19562.18
      7200.2     1.033277     2.925012  -0.01253929     19563.02
      7200.4     1.033814     2.922934 -0.008759899     19563.85
      7200.6     1.034351     2.922295  -0.01088777     19564.61
      7200.8       1.0349     2.921572   -0.0164231     19565.13
        7201     1.035423     2.916302  -0.02200379     19565.79
      7201.2     1.035931     2.909796  -0.02515693      19566.5
      7201.4     1.036463     2.904691  -0.02191896     19567.22
      7201.6        1.037     2.901446  -0.01921257     19567.97
      7201.8     1.037512     2.898767  -0.01944026     19568.68
        7202     1.038038     2.894426  -0.02179465     19569.37
      7202.2     1.038566     2.889139  -0.02516049     19570.04
      7202.4      1.03908      2.88401  -0.02630882     19570.73
      7202.6     1.039602     2.878638  -0.02554348     19571.47
      7202.8     1.040102     2.873379  -0.02455018     19572.16
        7203     1.040614     2.868704  -0.02206215     19572.93
      7203.2     1.041136      2.86437  -0.02049943     19573.97
      7203.4     1.041631     2.860989  -0.01910777     19574.84
      7203.6     1.042112     2.856979  -0.01680744      19575.8
      7203.8     1.042569     2.853418  -0.01505292     19576.68
        7204     1.043043     2.850924  -0.01263532     19577.36
      7204.2     1.043526     2.848946  -0.01304128     19578.16
      7204.4     1.043992     2.846871  -0.01468026     19578.82
      7204.6     1.044467     2.842985  -0.01373597     19579.53
      7204.8       1.0449      2.83918  -0.01349801     19580.18
        7205     1.045328     2.837957  -0.01359335     19580.91
      7205.2     1.045768     2.836072  -0.01350807     19581.59
      7205.4     1.046202     2.832111  -0.01412086     19582.06
      7205.6     1.046623     2.828374  -0.01540188     19582.69
      7205.8     1.046996     2.826661  -0.01551755     19583.44
        7206     1.047373     2.823751  -0.01546601      19584.3
      7206.2     1.047752     2.819697  -0.01754631     19585.14
      7206.4      1.04811     2.816001  -0.01854508     19585.93
      7206.6     1.048452     2.812624  -0.01890884     19586.77
      7206.8     1.048788     2.808915  -0.01767716     19587.56
        7207     1.049148     2.804569  -0.01610602     19588.26
      7207.2     1.049476     2.801859  -0.01362207     19588.89
      7207.4     1.049747     2.799739 -0.008051409     19589.42
      7207.6     1.050022     2.798017 -0.005120611     19589.98
      7207.8     1.050274     2.798128 -0.002075857     19590.67
        7208     1.050495     2.797763 -0.0001209389     19591.57
      7208.2     1.050703     2.798078  0.001001855     19592.44
      7208.4      1.05091      2.79792  0.005014696     19593.31
      7208.6      1.05114      2.79893  0.007585359      19594.3
      7208.8     1.051292     2.801774   0.00961385     19595.17
        7209     1.051398     2.804146   0.01150123     19595.96
      7209.2     1.051474     2.805612   0.01268765     19596.89
      7209.4     1.051541     2.808131   0.01696744     19597.54
      7209.6     1.051594     2.811925   0.02225814     19598.21
      7209.8     1.051652      2.81772   0.02428578     19598.79
        7210     1.051682     2.823418   0.02278231     19599.32
      7210.2     1.051659     2.827559   0.01825907     19599.96
      7210.4     1.051617      2.83015    0.0141747     19600.53
      7210.6     1.051544     2.832328   0.01577262     19601.18
      7210.8     1.051436     2.834758   0.02096826      19601.9
        7211     1.051297     2.840178   0.02396071     19602.32
      7211.2     1.051127     2.846925   0.02997227      19602.7
      7211.4     1.050966     2.851496   0.03051102     19603.32
      7211.6      1.05078     2.858736   0.02647603     19603.93
      7211.8     1.050546     2.864586    0.0288359     19604.52
        7212     1.050317     2.868106    0.0293446     19605.32
      7212.2     1.050102     2.874565   0.03026414     19606.17
      7212.4     1.049883     2.882211   0.03534969     19607.03
      7212.6     1.049586     2.888798   0.03705351     19607.85
      7212.8     1.049267     2.896386   0.03726451     19608.67
        7213     1.048902     2.904208   0.04104179     19609.42
      7213.2     1.048513     2.912023   0.04236603     19610.21
      7213.4     1.048124     2.921631   0.04114327     19610.98
      7213.6     1.047734     2.930278   0.04179615     19611.58
      7213.8     1.047336     2.937122    0.0414134      19612.3
        7214     1.046929      2.94546   0.04009788     19612.84
      7214.2     1.046476     2.954762    0.0425196     19613.49
      7214.4     1.045991     2.962357     0.046857     19614.29
      7214.6     1.045481     2.971138   0.04706104     19614.98
      7214.8     1.044952     2.982945   0.04504335     19615.77
        7215     1.044401     2.992411   0.04321295     19616.63
      7215.2     1.043828     2.998391   0.03985031     19617.29
      7215.4     1.043271     3.005708   0.03762385     19617.83
      7215.6     1.042688     3.014826   0.03606292     19618.41
      7215.8      1.04206      3.02251   0.03400805     19619.15
        7216      1.04146     3.027242   0.03079476     19619.84
      7216.2     1.040833     3.032915   0.03144947     19620.33
      7216.4     1.040227     3.039461   0.03589297     19620.79
      7216.6     1.039637     3.047669   0.03366271     19621.25
      7216.8     1.038994     3.055956   0.03289914     19621.78
        7217     1.038348     3.059845   0.02986224     19622.27
      7217.2      1.03766     3.065781   0.02430517     19622.91
      7217.4     1.037014     3.071559    0.0259293     19623.54
      7217.6      1.03638       3.0754   0.02774162     19624.11
      7217.8     1.035691     3.080589   0.02905928     19624.74
        7218     1.034987     3.087974   0.03481942     19625.45
      7218.2     1.034349     3.094807   0.03692716     19626.28
      7218.4     1.033688     3.103256   0.03239378     19626.91
      7218.6     1.032995      3.11013   0.02759177     19627.66
      7218.8     1.032312     3.113889   0.02078852     19628.49
        7219     1.031629      3.11688   0.01779809     19629.16
      7219.2     1.030976     3.119887   0.01683963     19629.77
      7219.4     1.030343     3.124369   0.01428622     19630.29
      7219.6     1.029686     3.127361   0.01429309     19630.79
      7219.8     1.029048     3.128309   0.01128835     19631.31
        7220     1.028469     3.131321   0.00699405     19631.98
      7220.2     1.027863     3.133399  0.005703951     19632.67
      7220.4     1.027268     3.132956 0.0009823226     19633.36
      7220.6     1.026717     3.132872 -0.001959315     19634.23
      7220.8     1.026162     3.132107 -0.002402422     19635.06
        7221     1.025631     3.131832 -0.006475813     19635.96
      7221.2     1.025074     3.131034 -0.004974151     19636.81
      7221.4     1.024531     3.127691 -0.004835662     19637.47
      7221.6     1.023997     3.128128 -0.009586726     19638.31
      7221.8     1.023474     3.127963   -0.0103856      19639.2
        7222      1.02299     3.123365  -0.01325793     19640.06
      7222.2     1.022506     3.119383   -0.0130923     19640.95
      7222.4     1.022007     3.117521 -0.007571033      19641.9
      7222.6     1.021496      3.11749 -0.006964211     19642.75
      7222.8     1.020954     3.117308  -0.01215588     19643.45
        7223     1.020383     3.113812  -0.01776347     19644.04
      7223.2     1.019798     3.107797  -0.02028417     19644.72
      7223.4     1.019206     3.103279   -0.0210849      19645.5
      7223.6     1.018611     3.101081  -0.02019993     19646.21
      7223.8     1.017996     3.096944  -0.02022491     19647.03
        7224     1.017348     3.091637  -0.02461095     19647.77
      7224.2     1.016712     3.087099   -0.0249877     19648.51
      7224.4      1.01606     3.081392  -0.02378233     19649.32
      7224.6     1.015418     3.076953  -0.02507661      19650.1
      7224.8      1.01475     3.072611  -0.02068835     19650.66
        7225     1.014065     3.067038  -0.02264899     19651.41
      7225.2     1.013335     3.064841   -0.0246538     19652.14
      7225.4      1.01258     3.058834  -0.02314692      19652.8
      7225.6     1.011787     3.052888   -0.0300995     19653.47
      7225.8     1.010973      3.04852  -0.03163615     19654.13
        7226     1.010182     3.040762  -0.03287836     19654.73
      7226.2     1.009345     3.033525  -0.03713973     19655.47
      7226.4     1.008452     3.026585  -0.03605399      19656.3
      7226.6     1.007552     3.018808  -0.03659065     19657.01
      7226.8     1.006606     3.011918   -0.0367824      19657.6
        7227     1.005604     3.004253  -0.03282126     19658.27
      7227.2     1.004576     2.997159  -0.03112764     19658.98
      7227.4     1.003545     2.992551  -0.03099843     19659.55
      7227.6     1.002516     2.987016  -0.03187042     19660.15
      7227.8     1.001403     2.979454  -0.03412087     19660.77
        7228     1.000253     2.971663   -0.0340847     19661.49
      7228.2    0.9991207     2.965255  -0.03513354      19662.3
      7228.4    0.9980329     2.959748  -0.03384075     19663.12
      7228.6    0.9969351     2.951347  -0.03412535     19663.96
      7228.8    0.9958462      2.94459  -0.03333262     19664.81
        7229    0.9947409     2.937954  -0.03278394     19665.46
      7229.2    0.9936211     2.933082  -0.03220272     19666.06
      7229.4    0.9925014      2.92512  -0.02875095     19666.56
      7229.6     0.991399     2.918828  -0.03010535     19667.13
      7229.8    0.9903275     2.914954  -0.02845686     19667.67
        7230    0.9892553     2.908998  -0.02882641     19668.34
      7230.2    0.9881761     2.902355  -0.03289652     19668.92
      7230.4    0.9871242     2.895767  -0.03330453     19669.65
      7230.6    0.9861108     2.888636   -0.0312925     19670.58
      7230.8     0.985088     2.882354  -0.03095953     19671.34
        7231    0.9840374     2.877321  -0.03138416     19671.99
      7231.2    0.9830208     2.870999  -0.02999395     19672.51
      7231.4    0.9820477     2.863529  -0.03206217     19673.09
      7231.6    0.9810785     2.858359  -0.03430299      19673.7
      7231.8    0.9801326     2.851671  -0.03513661     19674.12
        7232    0.9792169     2.843557  -0.03448277     19674.66
      7232.2    0.9783075      2.83542  -0.03230373     19675.22
      7232.4    0.9774264     2.830773  -0.02814525     19675.66
      7232.6    0.9765414     2.825828  -0.02379102     19676.17
      7232.8    0.9757153     2.821041  -0.02493973     19676.72
        7233    0.9749562     2.816387  -0.02560546     19677.24
      7233.2    0.9741754     2.810821  -0.02648463     19677.73
      7233.4    0.9734658     2.805344  -0.02499456     19678.25
      7233.6    0.9728291     2.799853  -0.02359907     19678.87
      7233.8    0.9721956     2.796391  -0.02316996     19679.43
        7234    0.9715708     2.791942  -0.02169116     19679.83
      7234.2    0.9710114     2.786808  -0.02335835      19680.4
      7234.4    0.9704897       2.7825  -0.02231944     19681.06
      7234.6    0.9699549     2.777705  -0.01844102     19681.67
      7234.8    0.9694321     2.774087  -0.01571534      19682.5
        7235    0.9689214     2.772055  -0.01460444     19683.36
      7235.2    0.9684235     2.769928  -0.01524748     19684.01
      7235.4    0.9679522     2.766021  -0.01789447     19684.69
      7235.6    0.9675021     2.761889  -0.01906199     19685.37
      7235.8    0.9671337     2.757739  -0.01779709      19686.1
        7236    0.9668223     2.754678  -0.01619602     19686.87
      7236.2    0.9665336     2.751783  -0.01316268     19687.61
      7236.4    0.9662324     2.748932  -0.01127242     19688.27
      7236.6    0.9659358     2.747209  -0.01073768     19688.76
      7236.8    0.9656804      2.74566 -0.009700981     19689.59
        7237    0.9654536     2.743193  -0.01024553     19690.17
      7237.2    0.9652446     2.741171 -0.009825098     19690.88
      7237.4    0.9650868     2.739013 -0.008426041     19691.49
      7237.6    0.9649828       2.7378 -0.008651932     19691.95
      7237.8    0.9649362     2.736452 -0.007050085     19692.59
        7238    0.9649201     2.734249 -0.005731939     19693.14
      7238.2    0.9648784     2.733373 -0.005111059     19693.57
      7238.4    0.9648495     2.733215 -0.003131012     19694.27
      7238.6    0.9648873     2.732363 -0.002261019     19695.06
      7238.8     0.964953     2.731745 -0.002820889     19695.69
        7239    0.9650452     2.731564 -0.0008397949     19696.48
      7239.2    0.9651893     2.730958 0.0003436283     19697.26
      7239.4    0.9653473     2.731692 -2.109081e-05        19698
      7239.6    0.9655315     2.732019  0.003180307     19698.74
      7239.8      0.96571     2.731547  0.002865544     19699.36
        7240    0.9659346     2.733502  0.002349073     19699.85
      7240.2    0.9662308     2.733984  0.003198311     19700.58
      7240.4    0.9665406     2.733899  0.001887189     19701.28
      7240.6    0.9668483     2.734106  0.001860596     19701.86
      7240.8    0.9671522     2.735012  0.003683188      19702.5
        7241    0.9674967     2.735473  0.004424175     19703.18
      7241.2    0.9678782     2.736845  0.002777922     19703.91
      7241.4    0.9682985     2.737645  0.002348244     19704.66
      7241.6     0.968757     2.737234  0.001539637     19705.55
      7241.8    0.9692101     2.737351  0.003106388     19706.44
        7242    0.9696592     2.738077  0.004365222      19707.2
      7242.2     0.970129      2.74013  0.002264473      19708.1
      7242.4    0.9706052     2.740726   0.00422451      19708.9
      7242.6    0.9710795     2.739163  0.005243228     19709.41
      7242.8    0.9715805     2.741457  0.008112908     19710.02
        7243    0.9721297     2.744325   0.01374907     19710.51
      7243.2    0.9727077     2.747217    0.0146235     19711.05
      7243.4    0.9733094     2.750162   0.01424332     19711.78
      7243.6    0.9739084     2.753155   0.01181728     19712.48
      7243.8    0.9744777     2.755719   0.01067253     19713.07
        7244    0.9750517     2.756671   0.01054547     19713.78
      7244.2    0.9756509       2.7587   0.01076481     19714.69
      7244.4    0.9762582     2.761592   0.01176824     19715.52
      7244.6    0.9768719     2.764331   0.01294202     19716.21
      7244.8    0.9774719     2.766085   0.01240139     19716.95
        7245    0.9780738     2.769054  0.009468008     19717.69
      7245.2    0.9786852     2.771513   0.00879364      19718.3
      7245.4    0.9793024     2.771905  0.006671496     19718.88
      7245.6     0.979937      2.77312  0.005112235     19719.54
      7245.8    0.9805339     2.774391  0.006083999     19720.27
        7246    0.9810908     2.775603   0.00686667     19720.93
      7246.2    0.9816688     2.776773  0.007540862     19721.63
      7246.4    0.9822243     2.778613  0.006858074     19722.35
      7246.6    0.9828116     2.780424  0.006361378     19723.23
      7246.8    0.9833861     2.781089  0.006422574     19723.93
        7247    0.9839385     2.781862  0.006186471      19724.5
      7247.2    0.9844932     2.783751  0.006541927      19725.2
      7247.4    0.9850148     2.785373  0.008325824     19725.96
      7247.6    0.9855247     2.786323  0.007915439     19726.57
      7247.8    0.9860612     2.788522  0.005425515     19727.38
        7248    0.9865568     2.790084  0.006458412     19728.22
      7248.2    0.9870356     2.789713  0.007491499     19728.98
      7248.4    0.9875063     2.791489  0.006887276     19729.66
      7248.6    0.9879717     2.794516  0.007728513     19730.26
      7248.8    0.9884339     2.795594  0.004314465        19731
        7249    0.9888619     2.795896 -0.001145777     19731.83
      7249.2    0.9892609     2.794941 -0.001744162     19732.44
      7249.4    0.9896348     2.793599 -0.002249573        19733
      7249.6    0.9900043     2.794198 -0.001539324     19733.76
      7249.8    0.9903592     2.794096 -0.001853124     19734.29
        7250    0.9907256      2.79371 -0.0006427405     19734.83
        7252    0.9936257     2.786324 -0.005820871     19742.07
        7254    0.9961226     2.772789  -0.00447575     19750.37
        7256    0.9992747     2.762137 -0.002677787     19758.06
        7258     1.004201     2.760557 -0.0001422325     19764.92
        7260     1.011281     2.764901  0.002574062     19771.99
        7262     1.019948     2.771651  0.003409251     19779.28
        7264     1.029134     2.782729  0.003586999     19786.99
        7266     1.037557     2.787831  0.004812934      19793.5
        7268      1.04471     2.793597  0.005206693     19799.83
        7270     1.050327     2.810155  0.006933429     19806.78
        7272     1.054503     2.824383  0.007597376     19814.37
        7274     1.057298     2.843299  0.005853591        19821
        7276     1.058495     2.854376  0.005138411     19826.99
        7278     1.058095     2.856983  0.003783755     19833.11
        7280     1.055877      2.86549  0.003967334     19839.15
        7282     1.051862     2.873569  0.004709037     19845.42
        7284     1.046027     2.886115  0.004589529     19852.41
        7286     1.038448     2.894656  0.002851219     19858.79
        7288     1.029054     2.902206 -0.0009786509     19865.91
        7290     1.018596     2.896378 -0.006077371     19873.38
        7292     1.007992     2.878286  -0.01166486     19880.81
        7294    0.9981311     2.846037   -0.0156593     19887.94
        7296    0.9900791     2.808887  -0.01682073     19894.57
        7298    0.9843627     2.771104  -0.01617105      19901.4
        7300     0.981435      2.74372    -0.014077     19907.94
        7302    0.9808954     2.716668    -0.011501     19913.75
        7304    0.9822074     2.696271 -0.009464274     19920.06
        7306    0.9846396     2.679096 -0.006924879     19926.04
        7308     0.987604     2.668006 -0.004722753     19931.72
        7310    0.9907693     2.661269  -0.00260776     19938.18
        7312    0.9937503     2.658489 -0.001627109     19943.83
        7314     0.996403     2.658234 -0.001193102     19951.28
        7316    0.9986734     2.654989 -0.001230595     19958.77
        7318     1.000468     2.651725 -0.001754699     19965.38
        7320     1.001854     2.648644 -0.001570463     19972.09
        7322     1.002858     2.644196 -0.001579363     19978.82
        7324     1.003399     2.642425 -0.001691606     19984.75
        7326     1.003638      2.63909 -0.001518237      19991.9
        7328     1.003328     2.635112 -0.002068463     19997.37
        7330       1.0026      2.63205 -0.002798982     20002.75
        7332     1.001522     2.625877 -0.003454454     20008.72
        7334      1.00049     2.616698 -0.003884728     20015.03
        7336     1.000023     2.607476 -0.003237948      20021.7
        7338     1.000416     2.600973 -0.001426271      20028.6
        7340     1.001738     2.599974 0.0008659511     20033.92
        7342     1.004028     2.605288  0.003370284     20039.58
        7344     1.007018     2.614404  0.005539639     20046.52
        7346       1.0103     2.627935   0.00666423     20053.04
        7348     1.013612     2.644291  0.007293721     20058.68
        7350     1.016609     2.658601  0.007096404     20064.86
        7352     1.019211     2.672753  0.006419335      20071.5
        7354     1.021196     2.684706  0.005968958        20078
        7356     1.022486     2.695646  0.005282092      20083.6
        7358        1.023     2.706353  0.004319472     20090.85
        7360      1.02282      2.71501  0.003585526     20097.61
        7362     1.021946     2.719262  0.002145839     20103.63
        7364     1.020484      2.72433 0.0005703302     20109.22
        7366     1.018323      2.72352 -0.001221383        20115
        7368     1.015615     2.719573 -0.003806868     20121.08
        7370     1.012675     2.709491 -0.006322954      20127.1
        7372     1.009675     2.693875 -0.009424625     20132.14
        7374     1.006663     2.672936  -0.01215379     20136.91
        7376     1.003541     2.644176   -0.0142519     20142.92
        7378     1.000761     2.612261  -0.01530088     20149.64
        7380    0.9982936      2.57986  -0.01451219     20155.64
        7382    0.9963446     2.550529  -0.01244367     20161.92
        7384    0.9947979     2.528078 -0.009367352     20168.58
        7386     0.993698     2.512711 -0.005946072     20174.07
        7388    0.9930287     2.504921  -0.00283301     20179.63
        7390    0.9926423     2.502961 -0.0004020725     20185.34
        7392    0.9923732     2.505414 0.0008581393     20191.03
        7394    0.9922156     2.509495  0.001048302     20197.52
        7396    0.9921724     2.511786 0.0008095915     20203.29
        7398    0.9922043     2.511347 -0.0001496174     20209.26
        7400    0.9923661     2.511891 -0.0007313189     20214.79
        7402    0.9926112     2.508298 -0.0009657962     20220.05
        7404    0.9929583     2.505935 -0.001273221      20225.8
        7406    0.9934994     2.503621 -0.000951619     20231.81
        7408    0.9941657     2.501705 -0.0009031993     20238.08
        7410    0.9948623     2.500685 -0.0007196605     20243.85
        7412    0.9955105      2.49871 -0.0006856402     20250.03
        7414    0.9961887     2.497863 -0.0009400464     20256.49
        7416    0.9967992      2.49622 -0.001320132     20261.82
        7418    0.9973971     2.493164 -0.002185318      20267.1
        7420    0.9978649     2.488149 -0.002882422     20272.64
        7422    0.9983554     2.480381 -0.003391356     20277.94
        7424    0.9988399     2.473161 -0.003526497     20283.12
        7426    0.9994002     2.466034 -0.002880472     20289.31
        7428     1.000033     2.459937 -0.002165098     20296.02
        7430     1.000909     2.457337 -0.001238348     20303.01
        7432     1.001833      2.45584 -0.0004671238     20309.25
        7434     1.002843     2.456127  0.000144912     20315.43
        7436     1.003901       2.4562 0.0007977777     20321.05
        7438     1.004828     2.458496  0.001508469     20326.72
        7440     1.005658     2.462222  0.002460174     20332.23
        7442     1.006275     2.468194  0.002861881     20337.92
        7444     1.006724     2.475881  0.002749875     20342.78
        7446     1.006873     2.481391  0.002442385     20347.57
        7448     1.006702     2.484221  0.001516434     20352.48
        7450     1.006265     2.487734 0.0006230192     20358.61
        7452     1.005618     2.488013 -0.0001974851     20364.64
        7454     1.004898     2.486375 -0.0009616487     20369.41
        7456     1.003977     2.482641 -0.001447163     20374.88
        7458     1.003183      2.48004 -0.002009657     20380.92
        7460     1.002415     2.476435 -0.002334258     20386.42
        7462     1.001752     2.470298 -0.003062821     20391.99
        7464     1.001146     2.463967  -0.00386592     20397.76
        7466     1.000627     2.455538 -0.004265132     20403.08
        7468     1.000157     2.445508 -0.004589061     20408.52
        7470    0.9997094     2.436177 -0.004865327     20413.92
        7472    0.9992235     2.427255 -0.004855908     20419.98
        7474    0.9985709     2.416615 -0.004703581     20426.42
        7476    0.9979167     2.406661 -0.004321334     20431.17
        7478    0.9971607     2.398549 -0.003826242     20436.62
        7480    0.9963648     2.392684 -0.003736335     20442.99
        7482     0.995563     2.386005 -0.003900118      20448.2
        7484    0.9947278      2.37677 -0.004246439     20452.51
        7486    0.9940229     2.367348 -0.004423333     20456.71
        7488     0.993457     2.358712 -0.004133903     20461.16
        7490    0.9930487     2.350619 -0.003747019     20467.05
        7492    0.9926633     2.343699 -0.003120123      20472.1
        7494    0.9925034     2.337371 -0.002137974     20477.36
        7496    0.9925102     2.333751 -0.001406944     20482.98
        7498    0.9926065     2.333515 -0.0008222526     20487.91
        7500    0.9927022     2.332443 -0.0005200709     20492.75
        7502     0.992851     2.330793 -0.000481188     20498.07
        7504    0.9930439     2.329591 -0.0005103915     20503.38
        7506    0.9932984     2.329665 -0.0006902692     20508.13
        7508    0.9936258      2.32836 -0.0007709502     20513.02
        7510    0.9939479     2.325271 -0.001256127     20517.49
        7512    0.9942461     2.323423 -0.001649875     20522.29
        7514    0.9945508     2.319616 -0.001672567     20526.32
        7516    0.9949198     2.315161 -0.001791787     20527.82
        7518    0.9953189     2.311891 -0.001661861     20517.82
        7520    0.9956462     2.309089 -0.001230649     20502.18
        7522    0.9961462     2.306321 -0.001110028     20499.39
        7524    0.9973298     2.305316 -0.001297829     20418.27
        7526     0.998356      2.30301 -0.0007509816     20221.33
        7528    0.9965955     2.298706 -0.001398418     20263.64
        7530    0.9986676     2.300314 -0.001003655      20274.2
        7532    0.9977523     2.294129 -0.0009717117     20356.08
        7534    0.9990217     2.294981 -0.001533474     20563.07
        7536    0.9993754     2.290933  -0.00112803     20551.51
        7538    0.9997398     2.288046 -0.001827496     20558.07
        7540     1.000089     2.285104 -0.001690948      20579.1
        7542     1.000373     2.280361 -0.001608905     20598.26
        7544     1.000614     2.277405 -0.001818209     20604.45
        7546     1.000708     2.275175 -0.001534117     20610.01
        7548     1.000746     2.270559 -0.001297956     20614.79
        7550     1.000784     2.268088 -0.001163993     20619.84
        7552     1.000721     2.267021 -0.0005466921     20624.74
        7554     1.000635     2.265863 -8.881463e-05     20629.22
        7556     1.000476     2.266185 0.0001073327     20634.43
        7558     1.000316     2.267378 0.0001634694     20639.75
        7560     1.000106      2.26788 -0.0001533403     20644.94
        7562     0.999931      2.26717 -0.000498363     20649.86
        7564    0.9996625     2.264958 -0.001134649      20654.3
        7566    0.9993479     2.263391  -0.00158574     20658.15
        7568    0.9990482     2.258803 -0.001946573     20662.49
        7570    0.9988092     2.254484 -0.002514993     20666.83
        7572    0.9985621     2.249386 -0.002878551     20671.17
        7574    0.9983097     2.243271 -0.003150385     20676.05
        7576    0.9980678     2.235774 -0.003388112     20680.24
        7578    0.9979302     2.229281 -0.003608031     20684.19
        7580    0.9978577     2.222281  -0.00354953     20688.14
        7582    0.9977687     2.214407 -0.003350091     20690.41
        7584    0.9976253     2.207378 -0.003053486      20693.1
        7586    0.9975537     2.202481 -0.002538279     20696.66
        7588    0.9974421     2.197853 -0.002101701     20700.44
        7590    0.9973861     2.194101 -0.001868116     20704.34
        7592    0.9972873     2.190565 -0.001592407     20708.04
        7594    0.9972096     2.187536 -0.001305845     20710.88
        7596    0.9970721     2.185114 -0.001229597      20713.9
        7598    0.9969179     2.183654 -0.001284942      20716.6
        7600    0.9968489     2.180728 -0.001449887     20721.76
        7602    0.9966893     2.177256 -0.001796974     20726.97
        7604    0.9964968     2.173515 -0.001901699     20731.75
        7606    0.9963581     2.169278 -0.002005166     20736.34
        7608    0.9961625     2.165514 -0.002142147      20741.1
        7610    0.9960124     2.161215 -0.002104378     20745.06
        7612    0.9957976     2.156378  -0.00207105     20749.02
        7614    0.9956981     2.152443 -0.001899198     20753.46
        7616    0.9956017     2.148946 -0.001557016     20758.18
        7618    0.9955718     2.146021 -0.001292074     20762.92
        7620    0.9956038     2.143921 -0.001003969     20767.88
        7622    0.9955835     2.142106 -0.0009344494     20773.19
        7624    0.9956678     2.140914 -0.0009815569     20776.69
        7626    0.9957732     2.138546 -0.001172048     20780.43
        7628    0.9958674     2.136069 -0.001456311     20784.81
        7630    0.9959262      2.13273 -0.001752386     20789.06
        7632    0.9960652     2.129264 -0.001976158     20793.39
        7634     0.996217     2.124527 -0.002103613     20797.08
        7636    0.9963656      2.12026 -0.002274481     20801.89
        7638    0.9965159     2.115901 -0.002236954     20806.86
        7640    0.9967112     2.111068 -0.002341588     20811.85
        7642    0.9969568     2.106631  -0.00227072     20815.83
        7644    0.9971979     2.101527 -0.002124581     20819.78
        7646    0.9975166     2.097735 -0.002004413     20824.88
        7648    0.9978282     2.094071 -0.001760033     20829.04
        7650    0.9980765     2.090596 -0.001613179     20833.57
        7652    0.9983704     2.087447  -0.00156043     20837.67
        7654     0.998716      2.08483 -0.001445347     20841.62
        7656    0.9990313     2.081588 -0.001290994     20846.04
        7658    0.9993104     2.079033 -0.001175159     20849.93
        7660    0.9995219     2.077119 -0.001036875     20853.77
        7662     0.999714     2.075429 -0.0009592263     20858.33
        7664    0.9998352     2.073293 -0.0009681684     20862.22
        7666    0.9999982     2.071359 -0.001027658     20866.57
        7668     1.000086     2.069373 -0.0009405614     20870.09
        7670     1.000084     2.067207 -0.0009790825     20873.66
        7672     1.000106     2.065768 -0.0008585398     20877.44
        7674     1.000101     2.063526 -0.0008209217     20880.98
        7676     1.000148     2.062505 -0.0008970109     20885.53
        7678     1.000074      2.06064 -0.0008539982     20890.23
        7680    0.9999905     2.058592 -0.001039417     20895.47
        7682    0.9999671     2.056694 -0.001145585     20900.48
        7684    0.9999083      2.05419 -0.001390599     20905.44
        7686    0.9998824     2.051475 -0.001572194     20909.15
        7688    0.9997873     2.047467  -0.00178769      20912.7
        7690    0.9996912     2.044117 -0.001912159     20915.98
        7692    0.9996314     2.039888 -0.001883303     20919.75
        7694    0.9995649     2.036178 -0.001868773     20924.36
        7696    0.9995793     2.032401 -0.001868567     20929.18
        7698    0.9994846     2.029167 -0.001861753     20933.23
        7700    0.9994176      2.02494 -0.001808248     20936.78
        7702     0.999434     2.021284 -0.001788302     20940.66
        7704    0.9994644     2.017935 -0.001583021     20944.75
        7706    0.9994177      2.01486 -0.001290035     20948.33
        7708     0.999354     2.012276 -0.001028328     20952.12
        7710    0.9992856     2.010964 -0.001054595     20955.92
        7712    0.9992908     2.009708 -0.001024922     20960.79
        7714    0.9993017     2.006423 -0.001153427     20964.85
        7716    0.9992741     2.004076 -0.001163618     20969.28
        7718    0.9991975     2.001736 -0.0008653756     20973.33
        7720    0.9991631     2.000399 -0.0007014829     20976.35
        7722    0.9991259       1.9995 -0.000670739     20979.85
        7724    0.9991479     1.998464 -0.0008890553     20982.77
        7726    0.9991112      1.99637 -0.001216234        20986
        7728    0.9990705     1.993287 -0.001312845     20989.57
        7730     0.999034     1.989771 -0.001324291     20993.19
        7732    0.9989646     1.987962 -0.001349479      20996.6
        7734    0.9989657     1.985776 -0.001350889     21000.25
        7736    0.9989137     1.982491 -0.001528672     21003.48
        7738     0.998911     1.978963 -0.001670975     21006.81
        7740    0.9988927     1.975732 -0.001647964     21010.06
        7742    0.9989083     1.972408 -0.001675586     21013.91
        7744    0.9989341     1.969307 -0.001572734     21017.59
        7746    0.9989515     1.965559 -0.001461933     21021.95
        7748    0.9989943      1.96315 -0.001375564     21025.56
        7750    0.9990465     1.960713 -0.001140728     21029.03
        7752    0.9990962     1.958303 -0.001155733     21032.61
        7754    0.9991689     1.956433 -0.001260618     21036.33
        7756    0.9991998     1.953904 -0.001351795     21039.62
        7758    0.9992849     1.950628 -0.001602722     21042.47
        7760    0.9993177     1.947488 -0.001822753     21045.81
        7762    0.9994329     1.943611 -0.001911253     21048.84
        7764    0.9995034     1.939322  -0.00206798     21051.89
        7766    0.9995528     1.935338 -0.002074833     21053.92
        7768    0.9996588     1.930945 -0.001989301     21055.52
        7770    0.9997382     1.927012 -0.001911631     21057.45
        7772    0.9998625     1.923408 -0.001771143     21058.76
        7774    0.9999467     1.920045 -0.001648912     21059.59
        7776     1.000036     1.916775 -0.001615961     21058.89
        7778     1.000132     1.913821 -0.001495851     21055.66
        7780     1.000278      1.91048 -0.001029975     21046.46
        7782     1.000591     1.908078 -0.0006531394     21017.49
        7784     1.002134     1.908536 -0.001933327     20778.35
        7786     1.003323     1.908596 -0.002622469     20234.13
        7788    0.9981217     1.895014 -0.001903285     20072.43
        7790    0.9976697     1.887098  -0.00219916     20214.18
        7792     1.000753     1.893309 -0.0008226888     21073.19
        7794     1.001009     1.891003 -0.0001383359      21108.5
        7796     1.001067     1.888432 -0.001175898     21117.43
        7798     1.001184     1.885991 -0.001161252     21123.37
        7800     1.001292     1.883902 -0.001130255     21127.83
        7802     1.001412     1.881713 -0.001065614     21130.96
        7804     1.001473      1.87939 -0.001119961     21134.45
        7806     1.001508     1.877467 -0.001170229     21137.61
        7808     1.001573     1.874943  -0.00119385      21141.2
        7810      1.00159     1.872351 -0.001316601     21144.92
        7812     1.001642     1.869839 -0.001421137     21147.34
        7814     1.001633     1.866934  -0.00150459      21150.4
        7816     1.001634     1.863573 -0.001619358     21152.64
        7818     1.001693     1.860314 -0.001594424     21154.76
        7820     1.001726     1.856884 -0.001543387     21157.86
        7822     1.001763     1.854178 -0.001508722     21161.42
        7824     1.001792     1.851226  -0.00142955     21164.83
        7826      1.00176     1.848244 -0.001493756     21168.36
        7828     1.001785     1.845448 -0.001545579     21171.29
        7830     1.001851     1.842228 -0.001522449     21174.16
        7832     1.001858     1.838862 -0.001548345     21176.84
        7834      1.00186     1.836065 -0.001463451     21180.57
        7836      1.00187     1.833061 -0.001381824     21184.71
        7838     1.001815     1.830521 -0.001403348      21187.9
        7840     1.001796     1.827807 -0.001368871     21191.09
        7842     1.001834     1.824838 -0.001368775     21193.81
        7844     1.001798      1.82211 -0.001355155     21196.72
        7846     1.001746     1.819571 -0.001374707     21199.58
        7848      1.00173     1.816966   -0.0013673     21202.53
        7850      1.00174      1.81384 -0.001447972     21204.73
        7852     1.001755     1.811172 -0.001495608     21206.87
        7854     1.001709     1.807987 -0.001515654     21209.65
        7856     1.001674     1.805001 -0.001536366     21212.54
        7858     1.001695     1.801715 -0.001492973     21215.07
        7860     1.001693     1.798881 -0.001479002     21217.45
        7862      1.00177     1.796043 -0.001359611     21221.48
        7864     1.001735     1.793169 -0.001379961     21224.21
        7866     1.001684     1.790838 -0.001387448     21226.89
        7868      1.00166     1.787841 -0.001375272     21230.12
        7870      1.00166     1.784943 -0.001468067     21232.37
        7872     1.001699     1.782167     -0.00147     21235.44
        7874     1.001697     1.779094 -0.001494168     21239.17
        7876     1.001727     1.776081 -0.001542312     21243.89
        7878     1.001728      1.77299 -0.001520691     21246.87
        7880      1.00168     1.769828 -0.001566878     21249.74
        7882     1.001627     1.766928 -0.001657211     21253.23
        7884     1.001609     1.763546  -0.00162771     21256.45
        7886     1.001613     1.759732  -0.00167009     21259.82
        7888     1.001636     1.756807 -0.001671474     21262.66
        7890     1.001673     1.753568 -0.001650364     21265.53
        7892     1.001732     1.750175 -0.001694919     21268.31
        7894     1.001772     1.746529 -0.001730551     21270.75
        7896     1.001821     1.743247 -0.001713307     21274.22
        7898      1.00184     1.739723 -0.001634472     21278.11
        7900     1.001872     1.736468 -0.001550893     21281.13
        7902     1.001941     1.733454 -0.001476179     21283.62
        7904     1.001974      1.73084 -0.001418748     21288.02
        7906     1.002037     1.727914 -0.001335218     21292.41
        7908     1.002088     1.725118 -0.001302666     21296.69
        7910     1.002144     1.722772 -0.001148299     21299.86
        7912     1.002249     1.720419 -0.001009813     21301.62
        7914     1.002647     1.718727 -0.001171161     21246.74
        7916     1.003584      1.71704 -0.001471194     20975.27
        7918     1.003679     1.713403 -0.001519343     20712.68
        7920     1.002273     1.708649 -0.001642311     21010.66
        7922     1.002412     1.706573 -0.001551128     21231.38
        7924     1.002626     1.703901 -0.001310528     21277.66
        7926     1.002661     1.700994 -0.001383048     21291.18
        7928     1.002693     1.698165 -0.001381987     21298.73
        7930     1.002741     1.695508 -0.001347263     21304.98
        7932     1.002775     1.692845 -0.001293503     21309.18
        7934     1.002806     1.690215 -0.001293567     21313.24
        7936     1.002802     1.687817 -0.001233655     21317.91
        7938     1.002877      1.68516 -0.001220309     21321.54
        7940     1.002929     1.682976 -0.001224287     21325.03
        7942     1.002983     1.680453 -0.001221958     21327.97
        7944     1.003074     1.678023 -0.001255232        21331
        7946      1.00308     1.675384 -0.001216942     21334.22
        7948      1.00311     1.672934  -0.00121889     21337.01
        7950     1.003143     1.670717 -0.001229471     21339.84
        7952     1.003162     1.668272 -0.001202754     21342.47
        7954     1.003228     1.665548 -0.001234631     21344.86
        7956     1.003244     1.663312 -0.001268674     21347.87
        7958     1.003245      1.66084 -0.001265588      21350.5
        7960     1.003251     1.658122 -0.001320234     21353.03
        7962     1.003295     1.655424 -0.001357422     21355.33
        7964     1.003344      1.65275 -0.001344943     21357.62
        7966     1.003331     1.649981  -0.00136611     21360.11
        7968     1.003313     1.647363 -0.001398616     21362.81
        7970      1.00329     1.644495 -0.001388091      21365.9
        7972     1.003319     1.641561 -0.001360535     21368.91
        7974     1.003357     1.638876 -0.001370673     21372.12
        7976     1.003314     1.636478 -0.001357332     21374.57
        7978      1.00327     1.633529 -0.001372494     21377.06
        7980     1.003277     1.630703 -0.001387623     21379.62
        7982     1.003264     1.627896 -0.001349071     21382.16
        7984     1.003272     1.625377 -0.001367231     21385.59
        7986     1.003266     1.622737 -0.001372487     21387.77
        7988     1.003261     1.619765 -0.001396704     21390.54
        7990     1.003222     1.616916 -0.001361096     21392.97
        7992     1.003195     1.614204 -0.001344607     21395.26
        7994     1.003201     1.611848 -0.001360112      21397.5
        7996     1.003225     1.609008 -0.001361515     21399.23
        7998     1.003177     1.606036 -0.001364256     21400.64
        8000     1.003144     1.603312 -0.001379187     21403.16
        8002     1.003082     1.600934 -0.001335386     21405.44
        8004       1.0031     1.597974 -0.001325433     21408.22
        8006     1.003109     1.595353 -0.001361459     21410.88
        8008     1.003067     1.592708 -0.001328116     21413.24
        8010     1.003027     1.590042 -0.001340436     21415.39
        8012      1.00296     1.587349 -0.001353813     21417.42
        8014     1.002976     1.584629 -0.001346679     21420.61
        8016      1.00298     1.581878  -0.00134099     21422.87
        8018     1.002934     1.579269  -0.00134259     21425.45
        8020     1.002867     1.576622 -0.001332058     21427.44
        8022     1.002838     1.573888 -0.001341584     21429.63
        8024     1.002798     1.571221 -0.001327981     21431.32
        8026     1.002801     1.568536 -0.001301516      21433.5
        8028     1.002732     1.565998 -0.001294473     21435.75
        8030     1.002685     1.563476 -0.001289387     21437.87
        8032     1.002673     1.560865 -0.001332067     21439.37
        8034      1.00263     1.558221 -0.001334412     21441.15
        8036     1.002642     1.555341 -0.001355806     21443.08
        8038     1.002616     1.552801 -0.001354968     21445.34
        8040     1.002508     1.550019 -0.001326396     21447.47
        8042     1.002479     1.547381 -0.001330842     21449.54
        8044     1.002459      1.54473 -0.001339032     21452.01
        8046     1.002437     1.542154 -0.001354125     21453.71
        8048     1.002457     1.539307 -0.001376973     21456.52
        8050     1.002395     1.536548 -0.001403249     21459.29
        8052     1.002374     1.533714 -0.001412814     21461.52
        8054     1.002302     1.530928 -0.001428197     21463.63
        8056     1.002267     1.528004  -0.00142542     21466.88
        8058     1.002258     1.525123 -0.001398548     21468.94
        8060     1.002192     1.522311 -0.001386656     21470.86
        8062     1.002159      1.51974 -0.001390983     21473.19
        8064     1.002124     1.516911 -0.001374954     21474.88
        8066     1.002071     1.513995 -0.001406065     21476.25
        8068     1.002046     1.511311 -0.001370846     21477.58
        8070     1.002012     1.508491 -0.001361077     21479.41
        8072     1.001931     1.505944 -0.001363867     21480.63
        8074     1.001863     1.503106  -0.00130533     21482.91
        8076     1.001811       1.5004 -0.001295756     21484.13
        8078     1.001824     1.498049  -0.00127546     21485.78
        8080     1.001792     1.495578 -0.001270793     21487.05
        8082      1.00171     1.492903 -0.001291514     21489.29
        8084     1.001661     1.490234  -0.00128707      21491.1
        8086     1.001622     1.487716 -0.001274364     21492.22
        8088     1.001577     1.485282 -0.001251999     21493.86
        8090     1.001567     1.482708 -0.001225673      21496.3
        8092     1.001484     1.480218 -0.001224945     21498.15
        8094     1.001419     1.477911 -0.001191492     21500.04
        8096     1.001382     1.475482 -0.001169113     21502.08
        8098     1.001329     1.473176 -0.001196188     21504.44
        8100     1.001278     1.470865 -0.001211122     21505.32
        8102       1.0012     1.468342 -0.001218168     21506.49
        8104     1.001111     1.465793 -0.001266146     21508.11
        8106     1.001074      1.46343  -0.00121996     21509.49
        8108     1.000999     1.460736 -0.001192621     21510.98
        8110     1.000946     1.458582 -0.001233434     21513.03
        8112      1.00087     1.456252 -0.001231213     21514.19
        8114     1.000767     1.453563 -0.001269763     21515.88
        8116     1.000682     1.450886 -0.001285655     21517.51
        8118     1.000604     1.448424 -0.001265382     21519.66
        8120      1.00055     1.445967 -0.001243929     21521.28
        8122     1.000494      1.44344 -0.001247238     21521.48
        8124     1.000363     1.440935 -0.001264773     21522.83
        8126     1.000281     1.438446 -0.001254532     21524.38
        8128     1.000227     1.435849 -0.001216403     21525.94
        8130     1.000155     1.433404 -0.001224963     21526.67
        8132     1.000125     1.431204 -0.001218528      21527.3
        8134     1.000032     1.428646 -0.001223471     21527.83
        8136    0.9999096       1.4261 -0.001245358     21529.54
        8138     0.999845     1.423616 -0.001232879     21531.66
        8140    0.9997538     1.421241   -0.0012113     21533.11
        8142    0.9996702     1.418783 -0.001209669      21534.2
        8144    0.9996232      1.41641 -0.001223668     21534.93
        8146    0.9994831     1.413938 -0.001231626     21535.83
        8148    0.9993954     1.411451 -0.001219374     21536.41
        8150    0.9992967      1.40893 -0.001225271     21538.14
        8152    0.9991799     1.406655 -0.001210171     21539.45
        8154    0.9991396     1.404136 -0.001225537     21540.88
        8156    0.9990456      1.40177 -0.001289316     21542.63
        8158    0.9988928     1.399126 -0.001262819     21543.58
        8160    0.9988047      1.39634 -0.001307759     21544.14
        8162    0.9987021     1.394034 -0.001295312     21545.03
        8164    0.9986243     1.391308 -0.001254485     21546.22
        8166    0.9985542     1.388763 -0.001273181     21547.17
        8168    0.9984063     1.386305 -0.001262186     21548.21
        8170    0.9982614     1.383848 -0.001248271     21549.24
        8172    0.9981605      1.38121 -0.001254144     21550.33
        8174    0.9980512     1.378777 -0.001263333     21551.86
        8176    0.9979936     1.376271 -0.001245537     21553.88
        8178    0.9978656     1.373742 -0.001258211     21554.34
        8180    0.9976999     1.371246 -0.001259241     21554.83
        8182    0.9975781     1.368712 -0.001265376     21555.79
        8184    0.9975095     1.366198  -0.00124729     21557.91
        8186    0.9974415     1.363619 -0.001254909      21560.1
        8188    0.9973601     1.361268 -0.001237493     21561.29
        8190    0.9971897     1.358672 -0.001219691     21562.02
        8192    0.9971105     1.356298 -0.001246967     21563.45
        8194    0.9970388     1.353861 -0.001206324     21564.39
        8196    0.9969457     1.351292 -0.001226657      21565.4
        8198    0.9968651     1.349022 -0.001241783     21566.84
        8200    0.9967351     1.346484 -0.001222129     21567.73
        8202    0.9966234     1.343927 -0.001244133     21568.88
        8204      0.99649     1.341515 -0.001259693     21569.69
        8206    0.9963699     1.339069 -0.001245138     21571.07
        8208    0.9963107     1.336407 -0.001243219     21572.28
        8210    0.9962166     1.333966 -0.001252805     21573.14
        8212    0.9960613     1.331569 -0.001232634     21573.69
        8214    0.9959415     1.329046 -0.001227895     21574.88
        8216    0.9958336     1.326546 -0.001227054     21575.76
        8218    0.9957202     1.324143 -0.001224985     21577.02
        8220    0.9956114     1.321753  -0.00121824     21577.95
        8222    0.9954794     1.319246 -0.001229476     21579.39
        8224    0.9953723       1.3168 -0.001252832     21580.93
        8226    0.9952789     1.314307 -0.001242895     21581.59
        8228    0.9951172      1.31173 -0.001240193        21581
        8230     0.995013     1.309303 -0.001230865     21582.62
        8232    0.9948933     1.306878 -0.001205651     21582.72
        8234    0.9947676      1.30446 -0.001212793     21583.97
        8236    0.9946948     1.302085 -0.001201509     21584.99
        8238    0.9945795     1.299601 -0.001196894     21585.52
        8240    0.9944595     1.297266 -0.001181432     21586.11
        8242     0.994366     1.294885 -0.001147103     21586.93
        8244    0.9942237     1.292634  -0.00116106     21587.94
        8246    0.9940657     1.290424 -0.001126746     21588.69
        8248    0.9939489     1.287978 -0.001086899     21589.03
        8250      0.99387     1.285871 -0.001040444     21589.38
