# This file has been produced by extranormal (v 1.0.1 - February 23, 2017)
# O. Roudenko - Synchrotron SOLEIL. Covered by GPL licence.
#Data from HDF File: /nfs/ruche/rock-soleil/com-rock/2021/Projets/20210209_Hilde/References/Ni_foil/Ni_foil_00002.nxs to Ni_foil_00186.nxs
#Time at start=2021-02-11 11:11:07.169
#Time from start (seconds)=464.849438027
#Sample temperature (C)=24.5
# Normalization -------------
# pivot spectrum: Pivot_Ni_10Ni-10Fe_50BN_RT_air_av2000_00001.txt
# E0=8333.0   Eshift=5.26192792739
# E0_pivot = 8333.0
# pre-edge params: from E0_pivot-182.0 to E0_pivot-50.0
# pre-edge range: [8151.0, 8283.0]
# post-edge params: from E0_pivot+100.0 to E0_pivot+640.0
# post-edge range: [8433.0, 8970.0]
# I jump at E0_pivot = 1.59604240792
# shifted energy	normalized	reference	ref.derivative	I0
        8150 -0.001305476     1.416575 -0.0004493345     21438.46
        8152 -0.001305476     1.416575 -0.0004493345     21438.46
        8154 -0.001305476     1.416575 -0.0004493345     21438.46
        8156 -0.001305476     1.416575 -0.0004493345     21438.46
        8158 -0.001201136     1.415683 -0.0004329253     21439.79
        8160 -0.000575518     1.414842 -0.0004054882      21441.4
        8162 0.0005015193     1.414064 -0.0003824784     21442.42
        8164   0.00181779     1.413331 -0.0003712768     21443.33
        8166  0.003129258     1.412624 -0.0003806002     21444.88
        8168  0.004119422     1.411872 -0.0004127615     21446.15
        8170  0.004490701     1.411019 -0.0004611846     21447.11
        8172  0.004104729     1.410029 -0.0005080058     21448.25
        8174  0.003116416     1.408934 -0.0005417203     21449.18
        8176  0.001761566     1.407808 -0.0005546506     21449.54
        8178 0.0004024283     1.406685 -0.0005522734     21450.37
        8180 -0.000739455     1.405592 -0.0005383086     21451.28
        8182 -0.001598493     1.404516 -0.0005137057     21451.26
        8184 -0.002068239     1.403502 -0.0004914619     21451.36
        8186 -0.002227611     1.402575 -0.0004739811     21452.11
        8188 -0.002313543      1.40166 -0.0004620083     21453.37
        8190 -0.002451128     1.400724 -0.0004620674     21454.89
        8192 -0.002587874     1.399806 -0.0004611911     21455.99
        8194 -0.002574518     1.398879 -0.0004491889     21457.03
        8196 -0.002339243     1.397971 -0.0004453362     21458.49
        8198 -0.001997799     1.397131 -0.0004385634      21459.6
        8200 -0.001671017     1.396243  -0.00043137     21460.76
        8202 -0.001352866      1.39537 -0.0004311783     21462.33
        8204 -0.0009632722      1.39452 -0.0004214798     21463.54
        8206 -0.0004725388     1.393681 -0.0004158026     21464.56
        8208 4.748203e-05     1.392871 -0.0004129047      21465.5
        8210 0.0005532994     1.392044 -0.0004108918     21466.64
        8212  0.001066071     1.391217 -0.0004142482     21467.74
        8214  0.001610145     1.390394 -0.0004145361     21468.53
        8216  0.002200092     1.389557 -0.0004137462      21469.2
        8218  0.002790341     1.388728 -0.0004166396     21470.33
        8220  0.003268455     1.387907 -0.0004267893     21471.04
        8222   0.00354336     1.387061 -0.0004439385     21472.17
        8224  0.003544468     1.386143 -0.0004639649     21473.25
        8226  0.003229401     1.385176 -0.0004837199     21474.24
        8228  0.002692945     1.384195 -0.0004960383     21475.51
        8230  0.002006988     1.383191 -0.0005013967     21475.84
        8232  0.001253776     1.382174 -0.0005054706     21475.92
        8234 0.0004872301     1.381165 -0.0005043149     21477.03
        8236 -0.0002642572     1.380151 -0.0005035514     21477.53
        8238 -0.000912527     1.379157 -0.0005041322     21478.74
        8240 -0.001451368     1.378146 -0.0005023448     21479.17
        8242  -0.00203568     1.377132 -0.0005034407     21479.27
        8244 -0.002735674     1.376132 -0.0005038017     21479.52
        8246 -0.003527197     1.375129 -0.0005021446     21479.97
        8248 -0.004323471     1.374116 -0.0004969269     21480.69
        8250 -0.004918056     1.373115 -0.0004858213     21481.53
        8252  -0.00523161     1.372157 -0.0004642922     21481.81
        8254 -0.005243111     1.371243 -0.0004407775     21482.21
        8256 -0.004968598     1.370401 -0.0004223065     21482.42
        8258 -0.004496422     1.369588 -0.0004115387     21481.86
        8260 -0.003891649     1.368779 -0.0004068619     21482.27
        8262 -0.003221976      1.36795 -0.0004025064     21482.58
        8264  -0.00256355     1.367146 -0.0004063748     21482.81
        8266 -0.002010362     1.366368 -0.0004151518     21483.27
        8268 -0.001615308     1.365528 -0.0004262477     21483.83
        8270 -0.001416289     1.364629 -0.0004404917     21483.86
        8272 -0.001380449     1.363736  -0.00044695      21484.1
        8274  -0.00141893     1.362845 -0.0004448735     21484.05
        8276 -0.001413808     1.361952 -0.0004343006     21483.67
        8278 -0.001196634      1.36107 -0.0004164593     21484.14
        8280 -0.000689342     1.360262 -0.0004052719     21484.36
      8280.2 -0.0006196361     1.360189 -0.0004046539     21484.27
      8280.4 -0.0005499302     1.360115 -0.0004040359     21484.19
      8280.6 -0.0004802244     1.360042 -0.0004034179      21484.1
      8280.8 -0.0004105185     1.359968 -0.0004027999     21484.02
        8281 -0.0003408126     1.359895 -0.0004021819     21483.93
      8281.2 -0.0002711068     1.359822 -0.0004015639     21483.85
      8281.4 -0.0001835471     1.359745 -0.0004009028     21483.76
      8281.6 -8.79798e-05     1.359668 -0.0004002225     21483.67
      8281.8 7.587538e-06      1.35959 -0.0003995422     21483.57
        8282 0.0001031549     1.359513 -0.0003988619     21483.48
      8282.2 0.0001987222     1.359435 -0.0003981816     21483.39
      8282.4 0.0002942896     1.359358 -0.0003975013     21483.29
      8282.6 0.0003898569      1.35928 -0.000396821      21483.2
      8282.8 0.0004854242     1.359203 -0.0003961406     21483.11
        8283 0.0005809916     1.359125 -0.0003954603     21483.02
      8283.2 0.0006765589     1.359047  -0.00039478     21482.92
      8283.4 0.0007778155     1.358965 -0.0003954082     21482.86
      8283.6 0.0008816239      1.35888 -0.0003966233     21482.81
      8283.8 0.0009854322     1.358795 -0.0003978384     21482.77
        8284  0.001089241      1.35871 -0.0003990535     21482.72
      8284.2  0.001193049     1.358625 -0.0004002687     21482.67
      8284.4  0.001296857      1.35854 -0.0004014838     21482.63
      8284.6  0.001400666     1.358455 -0.0004026989     21482.58
      8284.8  0.001504474      1.35837 -0.000403914     21482.53
        8285  0.001608282     1.358285 -0.0004051291     21482.48
      8285.2  0.001712091       1.3582 -0.0004063442     21482.44
      8285.4  0.001818189     1.358113 -0.0004163475      21482.4
      8285.6  0.001920781     1.358033 -0.0004067095     21482.28
      8285.8  0.002021319     1.357954 -0.0003806712     21482.15
        8286    0.0021198     1.357877 -0.0003591491     21481.98
      8286.2  0.002213874     1.357809 -0.0003467785      21481.7
      8286.4  0.002310097     1.357746 -0.0003437491     21481.51
      8286.6  0.002408567     1.357677 -0.0003463781     21481.44
      8286.8   0.00250291     1.357602 -0.0003509625     21481.31
        8287   0.00259055     1.357532 -0.0003466108     21481.04
      8287.2  0.002677424     1.357465 -0.000331747     21480.77
      8287.4   0.00276524       1.3574 -0.0003259173     21480.58
      8287.6   0.00284936     1.357336 -0.0003274884     21480.42
      8287.8  0.002928066     1.357271 -0.0003267437     21480.19
        8288  0.003006653     1.357203 -0.0003228351     21480.02
      8288.2  0.003086663     1.357138 -0.0003227164     21479.96
      8288.4   0.00316193     1.357078 -0.0003236749     21479.85
      8288.6  0.003232343     1.357013 -0.0003209811     21479.65
      8288.8  0.003301937     1.356944 -0.0003272336      21479.5
        8289  0.003371124     1.356882 -0.0003340039     21479.44
      8289.2  0.003434758     1.356816 -0.000341022      21479.2
      8289.4  0.003493518     1.356746 -0.0003606775     21478.85
      8289.6  0.003551111     1.356671 -0.0003775348     21478.59
      8289.8  0.003608241     1.356593 -0.0003882563     21478.32
        8290  0.003665303     1.356514 -0.0004032718     21478.11
      8290.2  0.003722527     1.356435 -0.000422836     21477.96
      8290.4  0.003778007     1.356349 -0.0004448587     21477.75
      8290.6  0.003828251     1.356255 -0.0004641328      21477.4
      8290.8  0.003877807     1.356158 -0.0004776591     21477.14
        8291  0.003929691     1.356064 -0.0004915316     21477.02
      8291.2  0.003978689     1.355967 -0.0005082792     21476.82
      8291.4  0.004024315     1.355862 -0.000523252     21476.53
      8291.6  0.004065655     1.355752 -0.0005364479     21476.17
      8291.8  0.004101761     1.355645 -0.0005483287     21475.68
        8292  0.004139223     1.355538 -0.0005601296     21475.16
      8292.2  0.004180041     1.355423 -0.0005692655      21474.7
      8292.4  0.004220977     1.355304 -0.0005729168     21474.29
      8292.6  0.004259647      1.35519 -0.0005634868     21473.83
      8292.8  0.004296051     1.355079 -0.0005407956     21473.23
        8293  0.004331864     1.354972 -0.0005214843     21472.65
      8293.2  0.004366885     1.354871 -0.000497028     21472.18
      8293.4   0.00439695     1.354772 -0.0004641892      21471.6
      8293.6  0.004426296     1.354682 -0.0004384028     21470.94
      8293.8  0.004458674     1.354601 -0.0004090351     21470.38
        8294  0.004489854      1.35452 -0.0003834368      21469.9
      8294.2  0.004521443     1.354445 -0.0003719734     21469.49
      8294.4  0.004552358     1.354375 -0.0003504607     21469.03
      8294.6  0.004578507     1.354303 -0.000325631      21468.4
      8294.8  0.004603475      1.35424 -0.0003070906     21467.77
        8295  0.004627439     1.354185 -0.0002866606     21467.19
      8295.2  0.004648976     1.354129 -0.000270412     21466.56
      8295.4  0.004670565     1.354074 -0.000261846     21465.88
      8295.6  0.004692159     1.354024 -0.0002592317     21465.16
      8295.8  0.004713713     1.353975 -0.0002575136     21464.47
        8296  0.004736862     1.353922 -0.0002567024     21463.84
      8296.2  0.004761453     1.353868 -0.0002608707     21463.09
      8296.4  0.004782237     1.353818 -0.0002780492     21462.12
      8296.6  0.004796782     1.353767 -0.0003070692     21460.99
      8296.8  0.004809633     1.353699 -0.000348562     21459.81
        8297  0.004821936     1.353622 -0.000397964     21458.49
      8297.2  0.004835794     1.353539 -0.0004317848     21457.12
      8297.4  0.004853673     1.353448 -0.0004523062     21455.88
      8297.6  0.004870667     1.353354 -0.0004728769     21454.53
      8297.8  0.004886631      1.35326 -0.0005005093     21453.09
        8298  0.004904962     1.353161 -0.0005324278     21451.65
      8298.2  0.004925299     1.353048 -0.0005631534      21450.1
      8298.4  0.004945515     1.352928 -0.0005921012     21448.45
      8298.6  0.004963143      1.35281 -0.000624591      21446.6
      8298.8  0.004978945     1.352687 -0.0006581286     21444.45
        8299  0.005000417     1.352548 -0.0006888126     21442.19
      8299.2  0.005025158     1.352401 -0.0007213139     21439.74
      8299.4  0.005048433     1.352259 -0.0007329007     21436.83
      8299.6  0.005074203      1.35211 -0.0007262116     21433.44
      8299.8  0.005100835     1.351962 -0.0007190093     21429.42
        8300  0.005128306      1.35182 -0.0007027447     21424.67
      8300.2  0.005162112     1.351683 -0.0006807946     21419.17
      8300.4  0.005203698     1.351548 -0.0006617639     21412.67
      8300.6  0.005250656     1.351417 -0.0006458009     21404.65
      8300.8  0.005305513     1.351291 -0.0006214256     21394.85
        8301  0.005377416     1.351167 -0.000587492     21383.46
      8301.2  0.005465435     1.351051 -0.0005511304     21370.54
      8301.4  0.005562004     1.350947 -0.0005075834     21355.78
      8301.6  0.005661044      1.35085 -0.0004567094     21338.92
      8301.8  0.005758544     1.350761 -0.0003976628     21320.21
        8302  0.005846606     1.350686 -0.0003277499     21300.49
      8302.2  0.005917149     1.350629 -0.0002510876     21280.88
      8302.4   0.00596857     1.350588 -0.0001833594     21262.44
      8302.6  0.006004209      1.35056 -0.0001365299     21245.86
      8302.8  0.006023913     1.350539 -9.684568e-05     21231.42
        8303  0.006027109      1.35052 -5.955508e-05     21219.13
      8303.2  0.006025745      1.35051 -3.160013e-05     21208.98
      8303.4  0.006026451     1.350512 -1.947072e-05      21200.4
      8303.6  0.006031299     1.350514 -2.767774e-05     21192.47
      8303.8  0.006048979     1.350504 -6.011765e-05     21184.52
        8304  0.006082862     1.350488 -0.0001224009     21175.68
      8304.2  0.006137571     1.350464 -0.0002080608     21165.04
      8304.4  0.006223706     1.350416 -0.0003246043     21151.69
      8304.6  0.006348468     1.350338 -0.0004697367     21134.42
      8304.8  0.006525901     1.350229 -0.0006164774     21111.88
        8305  0.006770035     1.350088 -0.0007575883     21082.58
      8305.2  0.007083865     1.349923 -0.000893646     21044.53
      8305.4  0.007487033     1.349732 -0.001018067     20995.35
      8305.6  0.008003383     1.349514 -0.001118096     20932.36
      8305.8  0.008641233     1.349274 -0.001171835     20853.51
        8306  0.009392789     1.349028 -0.001166003     20759.29
      8306.2   0.01021847     1.348794 -0.001110822     20651.46
      8306.4   0.01105179     1.348581 -0.001018098     20531.92
      8306.6   0.01181624     1.348385 -0.0008996341     20403.52
      8306.8    0.0124199     1.348214 -0.0007696784     20272.84
        8307   0.01278054     1.348074 -0.0006348946      20150.5
      8307.2   0.01285624     1.347965 -0.0005138534     20048.34
      8307.4   0.01265741     1.347877 -0.0004258359     19974.17
      8307.6   0.01222171     1.347803 -0.000373717     19932.16
      8307.8   0.01161046     1.347734 -0.0003454092     19924.37
        8308   0.01091729     1.347666 -0.0003261012     19950.35
      8308.2   0.01021847     1.347601 -0.0003080497     20004.03
      8308.4  0.009548523     1.347542 -0.000295672     20076.22
      8308.6  0.008910816     1.347487 -0.0002914984     20158.97
      8308.8  0.008302675      1.34743 -0.0002935591     20247.95
        8309   0.00771335     1.347368 -0.0003053699     20340.49
      8309.2  0.007131231     1.347307 -0.000311548     20433.77
      8309.4  0.006564879     1.347243 -0.0003069541     20525.08
      8309.6  0.006039643      1.34718 -0.0003059673     20613.32
      8309.8  0.005584198     1.347122 -0.0002951841     20697.91
        8310  0.005221278     1.347062 -0.0002765698     20777.14
      8310.2  0.004961492     1.347007 -0.0002639023     20848.31
      8310.4  0.004794483     1.346959 -0.0002458704     20908.88
      8310.6  0.004696344     1.346911 -0.0002380511     20957.33
      8310.8  0.004649655     1.346865 -0.0002530218     20993.67
        8311  0.004644675     1.346816 -0.0002781065     21018.07
      8311.2  0.004672162     1.346757 -0.0003293199     21030.64
      8311.4  0.004726197     1.346689 -0.0004120212     21032.46
      8311.6  0.004827175     1.346602 -0.0005139906     21026.05
      8311.8  0.004994071     1.346487 -0.0006358157     21012.07
        8312  0.005224414     1.346346 -0.0007656337      20988.5
      8312.2  0.005507205      1.34618 -0.0008870185     20953.77
      8312.4  0.005841014     1.345989 -0.0009901462     20908.58
      8312.6   0.00624139     1.345777 -0.001076382     20852.98
      8312.8  0.006736807     1.345553 -0.001135876     20783.53
        8313  0.007344356     1.345319 -0.001144299     20696.99
      8313.2  0.008070568     1.345081 -0.001087538      20594.4
      8313.4  0.008898654     1.344862 -0.0009611463     20480.07
      8313.6  0.009742809     1.344683 -0.0007796891     20356.27
      8313.8   0.01046248      1.34455 -0.0005740067     20224.79
        8314   0.01092032     1.344457 -0.0003866845     20092.71
      8314.2   0.01103739     1.344403 -0.0002444819     19975.58
      8314.4   0.01080925     1.344374 -0.0001538461     19888.55
      8314.6   0.01029509     1.344354 -0.0001194233     19840.57
      8314.8  0.009596133     1.344334 -0.0001291457     19833.94
        8315  0.008820868     1.344307 -0.0001599415     19865.61
      8315.2  0.008054149     1.344271 -0.0001903295      19928.4
      8315.4  0.007339253     1.344226 -0.0002106204     20012.97
      8315.6  0.006670788     1.344182 -0.0002231744     20110.44
      8315.8  0.006014316     1.344139 -0.0002380165     20214.49
        8316  0.005347856     1.344092 -0.0002639673     20321.61
      8316.2  0.004681268     1.344036 -0.0003033441     20430.15
      8316.4  0.004034535      1.34397 -0.0003523958     20538.81
      8316.6  0.003436917     1.343896 -0.0004027472     20646.99
      8316.8  0.002925871      1.34381 -0.0004574392     20754.03
        8317  0.002533641     1.343714 -0.0005144178     20856.91
      8317.2  0.002277639     1.343604 -0.0005607854     20950.66
      8317.4  0.002144964     1.343484 -0.0006074643     21030.56
      8317.6  0.002088871     1.343362 -0.0006475556     21094.12
      8317.8  0.002062448     1.343228 -0.0006603857     21142.14
        8318  0.002037886     1.343086 -0.0006650083     21177.66
      8318.2  0.002008507     1.342956 -0.0006609769     21204.41
      8318.4  0.001984724      1.34283 -0.0006532961     21225.34
      8318.6  0.001967942     1.342699 -0.0006703167     21242.36
      8318.8  0.001950869     1.342564 -0.0006993751     21256.81
        8319  0.001931885      1.34242 -0.0007158256     21269.83
      8319.2  0.001913109      1.34227 -0.0007071568     21282.17
      8319.4  0.001898532     1.342126 -0.0006759633     21294.16
      8319.6  0.001891907     1.341998 -0.0006463221     21305.91
      8319.8  0.001891364     1.341879  -0.00063769     21317.46
        8320  0.001898915     1.341753 -0.0006353789     21329.04
      8320.2  0.001917076     1.341616 -0.0006226276      21340.9
      8320.4  0.001938185      1.34149 -0.0005870009        21353
      8320.6  0.001954761     1.341381 -0.0005272753     21365.15
      8320.8  0.001972256     1.341284 -0.0004714482     21377.58
        8321  0.002002961     1.341194 -0.0004269599     21390.82
      8321.2  0.002038987     1.341113 -0.0003836733     21404.41
      8321.4   0.00208198     1.341039 -0.000340887     21417.97
      8321.6  0.002148352     1.340977 -0.0003025712     21431.52
      8321.8  0.002241994     1.340922 -0.0002715402     21444.58
        8322  0.002361623     1.340871 -0.0002468131     21456.55
      8322.2  0.002505305     1.340822 -0.0002273214     21466.95
      8322.4  0.002667608     1.340779 -0.0002096764     21475.39
      8322.6  0.002843194      1.34074  -0.00019172     21481.85
      8322.8  0.003028757     1.340703 -0.0001778329     21486.55
        8323  0.003222706     1.340669 -0.0001606371     21489.85
      8323.2  0.003425011     1.340637 -0.0001365087     21492.21
      8323.4  0.003638494     1.340611 -0.0001204781     21494.04
      8323.6  0.003863082     1.340594 -0.0001227585     21495.51
      8323.8  0.004093582     1.340572 -0.0001503747     21496.56
        8324  0.004337634     1.340539 -0.0002026122     21497.39
      8324.2   0.00460323     1.340491 -0.0002654113     21498.18
      8324.4  0.004888962     1.340432 -0.0003254522     21498.93
      8324.6  0.005194507      1.34036 -0.0003789518     21499.77
      8324.8   0.00551267     1.340278 -0.0004332849     21500.51
        8325  0.005839773     1.340188 -0.0004992692     21500.93
      8325.2  0.006191715     1.340085 -0.0005733978     21501.42
      8325.4  0.006573125     1.339961 -0.0006372495     21502.11
      8325.6  0.006978234      1.33982 -0.0006957956     21502.82
      8325.8  0.007404572     1.339678 -0.0007426699     21503.44
        8326  0.007850655     1.339528 -0.0007709489     21503.93
      8326.2  0.008316668     1.339366 -0.0008033329     21504.27
      8326.4  0.008805776     1.339203 -0.0008386662     21504.53
      8326.6  0.009322597     1.339035 -0.0008682689     21504.86
      8326.8  0.009868336     1.338857 -0.0008881975     21505.18
        8327   0.01044444     1.338672 -0.0008995249     21505.38
      8327.2    0.0110568     1.338492 -0.0008933339      21505.5
      8327.4   0.01171136     1.338316 -0.0008600585      21505.6
      8327.6   0.01241113     1.338143 -0.000814223     21505.76
      8327.8   0.01315928     1.337984 -0.0007578091     21506.08
        8328   0.01396502     1.337841 -0.0006902186     21506.45
      8328.2   0.01483908      1.33771 -0.0006161864     21506.65
      8328.4   0.01578827      1.33759 -0.0005334847     21506.65
      8328.6   0.01681359     1.337491 -0.0004344303     21506.68
      8328.8   0.01791373     1.337414 -0.0003171871     21506.72
        8329   0.01910824     1.337362 -0.000199982     21506.77
      8329.2   0.02044015     1.337337 -9.929248e-05     21507.02
      8329.4   0.02194355     1.337331 -2.498197e-05     21507.35
      8329.6   0.02363053     1.337335 1.820924e-05     21507.52
      8329.8   0.02551296     1.337342 4.124102e-05     21507.53
        8330   0.02763577     1.337351 5.497544e-05      21507.6
      8330.2   0.03009526     1.337364  5.49765e-05     21507.76
      8330.4   0.03301668     1.337379  2.08983e-05     21507.91
      8330.6    0.0365217     1.337386 -4.598319e-05     21508.03
      8330.8   0.04070044     1.337368 -0.0001290799     21508.14
        8331   0.04563878     1.337327 -0.0002433282     21508.26
      8331.2   0.05147564     1.337275 -0.0003776721     21508.31
      8331.4   0.05845017     1.337191 -0.0005145419     21508.22
      8331.6   0.06680693     1.337066 -0.0006462621     21508.03
      8331.8   0.07666883     1.336915 -0.0007460001     21507.81
        8332   0.08799983     1.336758 -0.0007976681      21507.6
      8332.2     0.100764     1.336595 -0.0008015149     21507.25
      8332.4    0.1149075     1.336428 -0.0007753309     21506.76
      8332.6    0.1302796     1.336274 -0.0007273947      21506.3
      8332.8    0.1466216     1.336138 -0.0006713048     21505.63
        8333    0.1636665     1.336013 -0.0006304253     21504.79
      8333.2     0.181174     1.335891 -0.0005975642     21504.04
      8333.4    0.1988951      1.33577 -0.0005593544     21503.15
      8333.6    0.2165001      1.33566 -0.0005168497     21502.15
      8333.8    0.2336428     1.335565 -0.0004533989     21501.14
        8334    0.2500911     1.335477 -0.0003814598     21499.98
      8334.2    0.2658504     1.335407 -0.0003273937     21498.81
      8334.4    0.2809721     1.335355 -0.0002780728     21497.74
      8334.6    0.2953649     1.335303 -0.0002286557     21496.73
      8334.8     0.308758     1.335255 -0.0001734448     21495.76
        8335    0.3209715     1.335224 -0.0001071028     21494.82
      8335.2    0.3320636     1.335216 -4.19198e-05     21493.98
      8335.4     0.342259     1.335218 -2.046869e-06     21493.36
      8335.6    0.3516513     1.335221 4.671239e-06     21492.84
      8335.8    0.3601843     1.335223 1.158705e-05     21492.37
        8336    0.3677885      1.33522 8.495763e-06     21492.07
      8336.2    0.3745174     1.335227 -3.256474e-05     21491.94
      8336.4    0.3805722     1.335228 -9.462311e-05     21491.99
      8336.6    0.3861774     1.335197 -0.0001809279     21492.12
      8336.8    0.3914515     1.335144 -0.0002810992     21492.12
        8337    0.3964591     1.335082 -0.0003737097     21492.17
      8337.2    0.4012988     1.335003 -0.0004577929     21492.36
      8337.4    0.4061219     1.334898 -0.0005409775     21492.35
      8337.6    0.4110805     1.334778 -0.0006181601     21492.21
      8337.8    0.4162899     1.334649 -0.0006554098     21492.25
        8338    0.4218275     1.334509 -0.000667133     21492.49
      8338.2    0.4277481     1.334373 -0.000672925     21492.51
      8338.4    0.4341546     1.334244 -0.0006638961     21492.28
      8338.6    0.4410254     1.334111 -0.000655797     21492.07
      8338.8    0.4482573     1.333978 -0.0006448037     21491.93
        8339    0.4557154     1.333849 -0.0006156798     21491.73
      8339.2    0.4633162     1.333728 -0.0005860751     21491.43
      8339.4    0.4710397     1.333618 -0.0005453444      21491.1
      8339.6    0.4788232     1.333509 -0.0004843262     21490.73
      8339.8    0.4865092     1.333412 -0.0004478508     21490.27
        8340    0.4939345     1.333341 -0.0004201181     21489.74
      8340.2    0.5010579      1.33326 -0.0003988818      21489.3
      8340.4    0.5079905     1.333173 -0.0004148485     21488.88
      8340.6    0.5148771     1.333093 -0.0004206759     21488.46
      8340.8    0.5217862     1.333009 -0.0004099476     21488.19
        8341    0.5286804     1.332924 -0.0004074494        21488
      8341.2     0.535557     1.332845 -0.0004031621     21487.76
      8341.4    0.5425372     1.332767 -0.000400761     21487.51
      8341.6    0.5498456     1.332687 -0.0004085317      21487.4
      8341.8    0.5576348     1.332603 -0.0004201617      21487.4
        8342    0.5659233     1.332518 -0.0004041765     21487.35
      8342.2    0.5746425     1.332431 -0.0003799972     21487.19
      8342.4    0.5837559     1.332363 -0.000397858     21486.93
      8342.6    0.5933342     1.332299 -0.000397304      21486.7
      8342.8    0.6035102     1.332199 -0.0003827897     21486.59
        8343    0.6143254     1.332113 -0.0003824306     21486.41
      8343.2    0.6256796     1.332057 -0.0003430352     21486.12
      8343.4    0.6374378     1.331993 -0.0002905307     21485.84
      8343.6    0.6495593     1.331925 -0.0002528392     21485.56
      8343.8    0.6620386     1.331881 -0.0002335022     21485.31
        8344    0.6748389     1.331855 -0.0002142359     21485.12
      8344.2    0.6878981     1.331806 -0.0002185255     21484.93
      8344.4    0.7011948     1.331754 -0.0002634335     21484.84
      8344.6    0.7147459     1.331706 -0.0002637717     21484.74
      8344.8    0.7285515     1.331644 -0.0002585799      21484.4
        8345    0.7425299     1.331595 -0.0002868496     21484.23
      8345.2    0.7565504     1.331547 -0.0002686116     21484.28
      8345.4    0.7705637     1.331477 -0.0002783562     21484.28
      8345.6    0.7846814     1.331429 -0.0003453694     21484.27
      8345.8     0.798998     1.331373 -0.0003930064     21484.24
        8346    0.8134084     1.331271 -0.0004388038     21484.14
      8346.2    0.8276358     1.331162 -0.0004669265        21484
      8346.4    0.8414955     1.331078 -0.0004644329     21483.93
      8346.6    0.8550628     1.330999 -0.000454726      21483.9
      8346.8    0.8685129     1.330899 -0.000439303     21483.72
        8347    0.8818161     1.330798 -0.0004108345     21483.39
      8347.2      0.89469     1.330727 -0.0003969708     21483.08
      8347.4    0.9068228      1.33067 -0.0004058223     21482.87
      8347.6    0.9180835     1.330581 -0.0004384932     21482.66
      8347.8    0.9285662     1.330474 -0.0004830961     21482.39
        8348    0.9383154     1.330376 -0.0004834952     21482.07
      8348.2    0.9471959     1.330284 -0.0004728153      21481.7
      8348.4    0.9550249     1.330195 -0.000500359     21481.28
      8348.6    0.9617577     1.330096 -0.0005467459     21480.77
      8348.8    0.9674663     1.329975 -0.0006036468      21480.1
        8349    0.9722265     1.329846 -0.0006400956     21479.34
      8349.2     0.976101     1.329712 -0.000611269     21478.51
      8349.4    0.9791594     1.329583 -0.0005735369     21477.61
      8349.6    0.9814814     1.329486 -0.0005622741     21476.61
      8349.8    0.9831409     1.329388 -0.0005723904     21475.44
        8350     0.984208     1.329262 -0.0006137605     21474.18
      8350.2    0.9847485     1.329126 -0.0006326534     21472.95
      8350.4     0.984816     1.328995 -0.0005966202     21471.67
      8350.6    0.9844639     1.328882 -0.0005404096     21470.38
      8350.8    0.9837388     1.328785 -0.0004895722     21469.09
        8351    0.9826754     1.328693 -0.0004555244     21467.65
      8351.2    0.9813326     1.328604 -0.0004314398     21466.24
      8351.4    0.9797842     1.328517 -0.0003671052     21464.92
      8351.6    0.9780887     1.328439 -0.0002668122     21463.52
      8351.8    0.9762676       1.3284 -0.0001887087     21462.09
        8352    0.9743443      1.32839 -0.000173775     21460.78
      8352.2    0.9723753     1.328366 -0.0002012779     21459.52
      8352.4    0.9704488       1.3283 -0.0002298465     21458.12
      8352.6    0.9686415     1.328238 -0.0002640283     21456.73
      8352.8    0.9669883     1.328206 -0.0002525274     21455.44
        8353    0.9654987     1.328155 -0.0002207265     21453.98
      8353.2    0.9642376     1.328098 -0.000234816     21452.66
      8353.4    0.9632875     1.328062 -0.0002793217     21451.76
      8353.6    0.9627044     1.328019 -0.0003461898     21451.06
      8353.8    0.9625245     1.327931 -0.0004188613     21450.32
        8354    0.9627784     1.327821 -0.000482579     21449.64
      8354.2    0.9634973     1.327727 -0.0005122112     21449.24
      8354.4    0.9647079     1.327633 -0.000525348     21449.11
      8354.6    0.9664037     1.327522 -0.0005524541     21449.23
      8354.8    0.9685573     1.327401 -0.0005788667     21449.53
        8355    0.9711395     1.327285 -0.0005963813     21449.84
      8355.2    0.9741164     1.327169 -0.000610668     21450.04
      8355.4    0.9774434     1.327045 -0.0006116306     21450.28
      8355.6    0.9810663     1.326913 -0.0005986219     21450.78
      8355.8    0.9849261     1.326796 -0.0005843239     21451.29
        8356    0.9889619     1.326691 -0.0005761519     21451.72
      8356.2     0.993101     1.326577 -0.0005910576     21452.17
      8356.4    0.9972475     1.326452 -0.0006035504     21452.62
      8356.6     1.001294     1.326323 -0.0005713558      21453.1
      8356.8     1.005159     1.326208 -0.0005240351     21453.59
        8357     1.008801      1.32612 -0.0004859718        21454
      8357.2     1.012179     1.326032 -0.0004538509     21454.32
      8357.4     1.015199     1.325934 -0.0004352589     21454.59
      8357.6     1.017756     1.325845 -0.0004088957     21454.76
      8357.8     1.019812     1.325772 -0.0003623808     21454.81
        8358      1.02138     1.325705 -0.0003050482     21454.88
      8358.2     1.022466     1.325644 -0.0002872014      21455.1
      8358.4     1.023047     1.325601 -0.0003118676      21455.3
      8358.6     1.023124     1.325542 -0.0003333271     21455.33
      8358.8     1.022736     1.325456 -0.0003712438     21455.18
        8359     1.021942     1.325377 -0.0004139935        21455
      8359.2     1.020784     1.325304 -0.0004404587     21454.94
      8359.4     1.019298     1.325211 -0.0004460605     21455.02
      8359.6     1.017534     1.325103 -0.0004544956     21455.15
      8359.8     1.015574     1.325021 -0.0004703557     21455.23
        8360     1.013498      1.32494 -0.0004553555     21455.34
      8360.2     1.011364     1.324835 -0.0004580129     21455.58
      8360.4      1.00921     1.324739 -0.000476693     21455.89
      8360.6      1.00707     1.324654   -0.0004776     21456.26
      8360.8     1.004975     1.324559 -0.0004885415     21456.65
        8361     1.002947     1.324453 -0.0005197163        21457
      8361.2     1.000987     1.324348 -0.0005522575     21457.28
      8361.4    0.9990916     1.324238 -0.0005460348     21457.58
      8361.6    0.9972637     1.324117 -0.0005199211     21457.86
      8361.8    0.9954979     1.324016 -0.0004906124     21457.96
        8362    0.9937774     1.323932 -0.0004521754      21458.1
      8362.2    0.9920654     1.323846 -0.0004558883     21458.39
      8362.4    0.9903187     1.323755 -0.0004964204     21458.44
      8362.6    0.9885439     1.323651 -0.0005184997      21458.5
      8362.8    0.9867554     1.323535 -0.0005000766     21458.84
        8363    0.9849306     1.323431 -0.0004420507     21459.19
      8363.2     0.983012     1.323355 -0.0003680754     21459.38
      8363.4    0.9809665     1.323297 -0.000307799     21459.51
      8363.6    0.9788081     1.323241 -0.0002961459     21459.73
      8363.8    0.9765823     1.323185 -0.0003247485     21459.93
        8364    0.9743236     1.323118 -0.0003529788     21460.05
      8364.2     0.972027     1.323038 -0.0004004867     21460.17
      8364.4    0.9696639     1.322958 -0.0004587912     21460.37
      8364.6    0.9672522     1.322864 -0.0004916707     21460.57
      8364.8    0.9648507     1.322751 -0.0005032399     21460.74
        8365    0.9625243     1.322644 -0.0004877077     21460.96
      8365.2    0.9603197     1.322556 -0.0004624478     21461.37
      8365.4     0.958237     1.322474 -0.0004648703     21461.87
      8365.6     0.956261     1.322381 -0.0004686091     21462.29
      8365.8    0.9544061     1.322272 -0.0004435312     21462.58
        8366    0.9527082     1.322181 -0.0004124727     21462.78
      8366.2    0.9511884     1.322119 -0.0003876601     21463.02
      8366.4    0.9498406     1.322051 -0.0003976278     21463.42
      8366.6    0.9486484     1.321962 -0.0004378811     21463.82
      8366.8    0.9476006     1.321863 -0.0004411695      21464.1
        8367    0.9466869     1.321769 -0.0004211067     21464.32
      8367.2    0.9458871     1.321698 -0.0004212825     21464.39
      8367.4    0.9451849     1.321625 -0.0004207592     21464.48
      8367.6    0.9445704     1.321526 -0.0004214847     21464.73
      8367.8    0.9440323     1.321433 -0.0004175238     21464.88
        8368    0.9435662     1.321361 -0.0004048764     21464.96
      8368.2     0.943166     1.321291 -0.0004013343     21465.22
      8368.4    0.9428174     1.321202 -0.000400008     21465.72
      8368.6    0.9425087     1.321111 -0.0003878742     21466.07
      8368.8    0.9422451     1.321041 -0.0003807807     21466.22
        8369    0.9420415     1.320981 -0.0003733338     21466.42
      8369.2    0.9419037     1.320897 -0.0003489557     21466.66
      8369.4    0.9418314     1.320813 -0.000334505     21466.89
      8369.6    0.9418283     1.320762 -0.0003133698     21467.13
      8369.8     0.941905     1.320713 -0.0002975274     21467.37
        8370    0.9420743     1.320647 -0.000308597     21467.57
      8370.2    0.9423454     1.320575 -0.0003218721     21467.77
      8370.4    0.9427237     1.320515 -0.0003387533     21468.05
      8370.6    0.9432172     1.320456 -0.0003685172     21468.17
      8370.8    0.9438447     1.320376 -0.0003669372     21468.24
        8371    0.9446206      1.32028 -0.0003404229     21468.56
      8371.2    0.9455301     1.320221 -0.0003199206     21468.81
      8371.4    0.9465653     1.320184 -0.0002874775     21468.83
      8371.6    0.9477346      1.32012 -0.000286446     21468.84
      8371.8    0.9490449      1.32005 -0.000304008     21468.99
        8372    0.9504889     1.319992 -0.0002924484     21469.26
      8372.2    0.9520563      1.31994 -0.0002782261     21469.46
      8372.4    0.9537447     1.319886 -0.0002850255     21469.48
      8372.6    0.9555589     1.319827 -0.0003098481     21469.47
      8372.8    0.9574968     1.319764 -0.0003429891     21469.49
        8373    0.9595448     1.319692 -0.000369797     21469.39
      8373.2    0.9616891     1.319611 -0.000364608      21469.3
      8373.4    0.9639387     1.319532 -0.000309206     21469.35
      8373.6    0.9663103     1.319473 -0.0002593823     21469.48
      8373.8     0.968799     1.319445 -0.0002455351     21469.47
        8374    0.9713754     1.319404 -0.0002302402     21469.46
      8374.2    0.9740078     1.319335 -0.0002643238      21469.6
      8374.4    0.9766847     1.319288 -0.0003045984     21469.73
      8374.6    0.9794298     1.319234 -0.0002817385     21469.79
      8374.8    0.9822727      1.31916 -0.0002743592     21469.88
        8375    0.9852103      1.31911 -0.0002583074     21470.04
      8375.2    0.9881847     1.319069 -0.0002165865     21470.17
      8375.4    0.9911623     1.319027 -0.0002284018     21470.36
      8375.6    0.9941642     1.318987 -0.0002733665      21470.7
      8375.8    0.9972396     1.318927 -0.0003064005     21470.92
        8376     1.000411      1.31885 -0.000313876     21471.07
      8376.2     1.003654     1.318782 -0.0002969939     21471.29
      8376.4     1.006914     1.318736 -0.0002668669     21471.48
      8376.6     1.010159     1.318689 -0.0002385914     21471.64
      8376.8     1.013412     1.318637 -0.0002546635     21471.81
        8377     1.016718     1.318591 -0.0002642785     21472.05
      8377.2     1.020077     1.318532 -0.0002198612     21472.21
      8377.4     1.023447     1.318478 -0.0001767757     21472.28
      8377.6     1.026785     1.318461 -0.0001573176     21472.36
      8377.8     1.030097      1.31845 -0.0001738555      21472.4
        8378     1.033396     1.318406 -0.0002186027     21472.54
      8378.2     1.036676     1.318339 -0.0002750271      21472.8
      8378.4     1.039911     1.318286 -0.0003019982     21472.92
      8378.6     1.043104      1.31823 -0.0002743833      21472.9
      8378.8     1.046265     1.318165 -0.0002636078     21472.92
        8379      1.04939     1.318119 -0.0002649783     21473.04
      8379.2     1.052461     1.318075 -0.0002560155      21473.2
      8379.4     1.055451     1.318018 -0.0002614484     21473.35
      8379.6     1.058342      1.31796 -0.0002611963     21473.48
      8379.8     1.061151      1.31791 -0.0002402198     21473.57
        8380     1.063889     1.317866 -0.0002105012     21473.65
      8380.2     1.066538     1.317825 -0.0001924961     21473.81
      8380.4     1.069056     1.317791 -0.0001984302     21474.08
      8380.6     1.071397     1.317756 -0.0002249692     21474.25
      8380.8     1.073569     1.317707 -0.0002428171     21474.33
        8381     1.075618     1.317645 -0.0002520752     21474.55
      8381.2     1.077533     1.317597 -0.0002684274     21474.73
      8381.4     1.079276     1.317555 -0.0002703409     21474.74
      8381.6     1.080818     1.317493 -0.0002790307     21474.71
      8381.8     1.082144     1.317429 -0.0002941688     21474.71
        8382     1.083263     1.317374 -0.0002864589      21474.7
      8382.2     1.084189     1.317319 -0.0002750185     21474.64
      8382.4     1.084913     1.317263 -0.0002700623     21474.61
      8382.6     1.085414     1.317209 -0.0002650382     21474.49
      8382.8     1.085691     1.317158 -0.0002686693     21474.19
        8383     1.085764     1.317107 -0.0002997931     21473.87
      8383.2     1.085643     1.317049 -0.0003507014     21473.77
      8383.4     1.085337     1.316969 -0.0003662523     21473.82
      8383.6      1.08486     1.316877 -0.0003734969     21473.76
      8383.8     1.084198     1.316814 -0.0003917288     21473.59
        8384     1.083357      1.31675 -0.0003568995     21473.46
      8384.2     1.082349     1.316656 -0.0003418458     21473.39
      8384.4     1.081179     1.316592 -0.0003597175     21473.22
      8384.6     1.079862     1.316541 -0.0003542965     21473.03
      8384.8     1.078404     1.316462 -0.0003571997     21472.88
        8385     1.076781     1.316372 -0.0003595351     21472.65
      8385.2     1.074974     1.316306 -0.0003502895     21472.31
      8385.4     1.073008     1.316253 -0.0003432485     21471.88
      8385.6     1.070928     1.316182 -0.0003533588     21471.39
      8385.8     1.068747     1.316098 -0.0003738031     21471.02
        8386     1.066453     1.316023 -0.0004009639     21470.87
      8386.2     1.064024     1.315954 -0.0004019287     21470.77
      8386.4     1.061444     1.315861 -0.0003900683      21470.5
      8386.6     1.058757     1.315776 -0.0004215527     21470.07
      8386.8     1.056031     1.315711 -0.0004110913     21469.71
        8387     1.053286     1.315617 -0.0003599313     21469.67
      8387.2     1.050462     1.315532 -0.0003276355     21469.66
      8387.4     1.047526     1.315488 -0.0002945565     21469.42
      8387.6     1.044518     1.315449 -0.000298886     21469.03
      8387.8     1.041505     1.315381 -0.0003550659     21468.69
        8388     1.038532     1.315293 -0.0004219338     21468.41
      8388.2     1.035603     1.315204 -0.0004597866     21468.17
      8388.4     1.032683     1.315112 -0.0004675438     21467.99
      8388.6     1.029761     1.315013 -0.0004664615     21467.75
      8388.8      1.02687     1.314919 -0.0004888634     21467.45
        8389     1.024056     1.314831 -0.0005098908     21467.34
      8389.2     1.021325     1.314721 -0.0004748394     21467.26
      8389.4     1.018663     1.314605 -0.0004429788     21467.09
      8389.6     1.016066     1.314539 -0.0003917355     21467.01
      8389.8     1.013536     1.314477 -0.0003154362     21466.88
        8390     1.011066     1.314407 -0.000348434     21466.66
      8390.2     1.008647     1.314353 -0.0004526652     21466.48
      8390.4     1.006276      1.31426 -0.000548982     21466.31
      8390.6     1.003957     1.314115 -0.0006088318     21466.04
      8390.8     1.001696     1.313968 -0.000621581     21465.69
        8391    0.9994909     1.313866 -0.0006048057     21465.43
      8391.2    0.9973329     1.313763 -0.0005672703     21465.34
      8391.4    0.9952008     1.313631 -0.0005483256     21465.26
      8391.6    0.9930808     1.313514 -0.0005110484     21464.99
      8391.8    0.9910075     1.313427 -0.0004448656     21464.75
        8392    0.9890169     1.313354 -0.0004275158     21464.76
      8392.2    0.9871049     1.313275 -0.0004520002     21464.93
      8392.4    0.9852269     1.313172 -0.0004815705     21465.03
      8392.6    0.9833607     1.313066 -0.0005365899     21464.99
      8392.8    0.9815297     1.312969 -0.0005671156     21464.94
        8393    0.9797817     1.312846 -0.0005540205        21465
      8393.2    0.9781313     1.312718 -0.000532316     21465.11
      8393.4    0.9765611     1.312623 -0.000478655      21465.2
      8393.6    0.9750492     1.312543 -0.0004340236     21465.32
      8393.8    0.9735901     1.312463 -0.0004466253     21465.34
        8394    0.9722089     1.312371 -0.0004741477     21465.21
      8394.2    0.9709405     1.312265 -0.0004946907     21465.06
      8394.4    0.9697853     1.312164 -0.0005123932     21465.07
      8394.6    0.9687314     1.312067 -0.0005134957      21465.2
      8394.8    0.9677745     1.311961 -0.0005031737     21465.31
        8395    0.9669167     1.311854 -0.0004898989     21465.32
      8395.2    0.9661567     1.311761 -0.0004894949     21465.24
      8395.4    0.9654878     1.311675 -0.0004995611     21465.16
      8395.6    0.9649033      1.31157 -0.0005123351     21465.11
      8395.8    0.9644066     1.311455 -0.0005142042     21465.08
        8396    0.9639934     1.311351 -0.0004741506     21465.04
      8396.2    0.9636468     1.311264 -0.0004408675     21464.95
      8396.4    0.9633614      1.31119 -0.0004684561     21464.89
      8396.6    0.9631353     1.311102 -0.0005046245     21464.88
      8396.8    0.9629609     1.310977 -0.0005431722     21464.81
        8397    0.9628253      1.31086 -0.0005796035     21464.64
      8397.2    0.9627254     1.310756 -0.0005631605     21464.49
      8397.4    0.9626582     1.310638 -0.000533142     21464.47
      8397.6    0.9626066     1.310526 -0.0005136534     21464.45
      8397.8    0.9625503     1.310433 -0.0005025016     21464.27
        8398    0.9624857     1.310345 -0.0005015949     21464.01
      8398.2    0.9624233     1.310236 -0.0005189082     21463.95
      8398.4    0.9623529     1.310125   -0.0005546     21463.89
      8398.6    0.9622582     1.310018 -0.0005707997     21463.73
      8398.8    0.9621337     1.309901 -0.0005819451     21463.65
        8399    0.9619793      1.30978 -0.000609261     21463.71
      8399.2    0.9617896     1.309659 -0.0006394354     21463.75
      8399.4     0.961561     1.309531 -0.0006498736     21463.65
      8399.6    0.9613033      1.30939 -0.0006288075     21463.61
      8399.8     0.961014      1.30926 -0.0005954397     21463.69
        8400     0.960682     1.309156 -0.0005497883     21463.75
      8400.2    0.9603052     1.309055 -0.0005151294     21463.65
      8400.4    0.9598964      1.30895 -0.0005127644     21463.59
      8400.6    0.9594654     1.308848 -0.0005097998     21463.71
      8400.8    0.9590119     1.308746 -0.0005143051     21463.83
        8401    0.9585376     1.308647 -0.0005538743     21463.91
      8401.2    0.9580492     1.308538 -0.0006075658     21463.92
      8401.4    0.9575545     1.308405 -0.0006499029     21463.81
      8401.6    0.9570584      1.30826 -0.0006596836     21463.73
      8401.8    0.9565606     1.308127 -0.0006346157     21463.73
        8402    0.9560627     1.308011 -0.0005951143     21463.77
      8402.2    0.9555747     1.307897 -0.000564528     21463.89
      8402.4     0.955105     1.307784 -0.000552567     21463.99
      8402.6    0.9546572     1.307675 -0.000534914        21464
      8402.8    0.9542304     1.307569 -0.0005070547        21464
        8403    0.9538141     1.307469 -0.0004862641     21463.96
      8403.2    0.9534152     1.307378 -0.0004840034     21463.92
      8403.4    0.9530584     1.307286 -0.0004993057     21463.97
      8403.6    0.9527527     1.307181 -0.0005245724     21464.08
      8403.8    0.9524887      1.30707 -0.0005672603     21464.15
        8404    0.9522578     1.306959 -0.000606146     21464.23
      8404.2    0.9520681     1.306832 -0.0006227532     21464.48
      8404.4    0.9519298     1.306696 -0.0006201295     21464.79
      8404.6    0.9518445     1.306571 -0.000586818     21464.93
      8404.8    0.9518091     1.306462 -0.0005354117      21464.9
        8405    0.9518303     1.306363 -0.0004961987     21464.96
      8405.2    0.9519162     1.306268 -0.0004981834     21465.14
      8405.4    0.9520647     1.306174 -0.0005185213     21465.12
      8405.6    0.9522647     1.306064 -0.0005163194     21464.97
      8405.8    0.9525201     1.305948 -0.0005200657     21464.92
        8406     0.952843     1.305855 -0.0005265147     21464.96
      8406.2    0.9532194     1.305758 -0.0005306287     21464.89
      8406.4    0.9536411     1.305643 -0.0005572199     21464.74
      8406.6    0.9541122     1.305524 -0.0005962105     21464.68
      8406.8      0.95463     1.305409 -0.0006366459     21464.77
        8407    0.9551933     1.305281 -0.0006634292     21464.98
      8407.2    0.9557961     1.305133 -0.0006764965     21465.21
      8407.4    0.9564212     1.304993 -0.000661076      21465.3
      8407.6    0.9570611     1.304868 -0.0006080426     21465.28
      8407.8     0.957714     1.304753 -0.0005452033     21465.32
        8408    0.9583774     1.304647 -0.000505435     21465.44
      8408.2    0.9590563     1.304557 -0.0005128636     21465.63
      8408.4    0.9597373     1.304464 -0.0005511535     21465.71
      8408.6    0.9603979     1.304342 -0.0005921407     21465.57
      8408.8    0.9610445     1.304206 -0.0006087865     21465.55
        8409    0.9616788     1.304083 -0.000604721      21465.7
      8409.2    0.9622956     1.303977 -0.0005953984     21465.79
      8409.4    0.9629014     1.303858 -0.0005862847     21465.83
      8409.6    0.9634835      1.30373 -0.0005688031     21465.93
      8409.8    0.9640309     1.303614 -0.0005230566     21466.11
        8410    0.9645577     1.303522 -0.0004746582     21466.34
      8410.2    0.9650694      1.30344 -0.0004618778     21466.57
      8410.4    0.9655617      1.30335 -0.000477279      21466.7
      8410.6    0.9660361     1.303244 -0.0005058594     21466.69
      8410.8    0.9665095      1.30314 -0.0005443508     21466.88
        8411    0.9669834     1.303035 -0.000575205     21467.25
      8411.2    0.9674465     1.302914 -0.0005916111     21467.48
      8411.4     0.967906     1.302784 -0.0005830184     21467.52
      8411.6    0.9683677     1.302667 -0.0005489152     21467.41
      8411.8    0.9688366     1.302569 -0.0004929266     21467.22
        8412    0.9693276     1.302475 -0.0004431953     21467.14
      8412.2    0.9698358      1.30239 -0.0004395076     21467.02
      8412.4    0.9703576     1.302312 -0.0004465686      21466.8
      8412.6    0.9709099     1.302217 -0.0004562117     21466.83
      8412.8    0.9714966     1.302118 -0.0004839507     21466.94
        8413      0.97211     1.302025 -0.0004937469     21466.88
      8413.2    0.9727493     1.301925 -0.0004983819     21466.75
      8413.4    0.9734328     1.301822 -0.0005129729      21466.7
      8413.6    0.9741637     1.301719 -0.0004982724     21466.78
      8413.8    0.9749277     1.301615 -0.0004784822     21466.87
        8414    0.9757198     1.301526 -0.0004778603     21466.79
      8414.2     0.976555      1.30144 -0.0004592683     21466.68
      8414.4    0.9774482     1.301337 -0.000444487     21466.76
      8414.6    0.9783944     1.301247 -0.0004441237     21466.88
      8414.8    0.9793793     1.301171 -0.0004419895     21466.87
        8415     0.980394     1.301084 -0.000432471     21466.79
      8415.2    0.9814388     1.300983 -0.0004243463     21466.84
      8415.4    0.9825156     1.300901 -0.0004394412     21466.88
      8415.6    0.9836288     1.300831 -0.0004299657      21466.7
      8415.8    0.9847805     1.300733 -0.0004160359     21466.43
        8416    0.9859564      1.30064 -0.0004303584     21466.34
      8416.2    0.9871365     1.300568 -0.0004422401     21466.49
      8416.4    0.9883164     1.300487 -0.0004597876     21466.66
      8416.6    0.9895194     1.300379 -0.0004762014     21466.72
      8416.8    0.9907499     1.300272 -0.0004800759     21466.88
        8417    0.9919893     1.300187 -0.0004650823     21467.28
      8417.2    0.9932206     1.300103 -0.000457959     21467.59
      8417.4    0.9944377     1.300007 -0.0004828273     21467.69
      8417.6    0.9956409     1.299905 -0.0005045685      21467.7
      8417.8    0.9968313     1.299801 -0.0005030531     21467.72
        8418    0.9980081     1.299699 -0.0004867832     21467.83
      8418.2    0.9991675     1.299604 -0.0004704511     21467.96
      8418.4     1.000308     1.299516 -0.0004443587     21467.94
      8418.6     1.001441     1.299425 -0.0003982826      21467.9
      8418.8     1.002569     1.299344 -0.0003711679     21467.93
        8419     1.003684     1.299286 -0.0003653624     21467.95
      8419.2     1.004781     1.299219 -0.0003760916     21467.84
      8419.4     1.005873     1.299133  -0.00041315     21467.69
      8419.6      1.00698     1.299043 -0.0004463459     21467.62
      8419.8     1.008102     1.298955 -0.0004582738     21467.64
        8420     1.009221     1.298862 -0.0004481618     21467.65
      8420.2     1.010326     1.298766 -0.0004365133     21467.69
      8420.4      1.01143     1.298684 -0.0004275192     21468.03
      8420.6     1.012538     1.298606 -0.0004153257     21468.36
      8420.8     1.013658      1.29852  -0.00041762     21468.42
        8421     1.014803     1.298434 -0.0004246749      21468.4
      8421.2     1.015957      1.29835 -0.0004249803     21468.42
      8421.4     1.017106     1.298266 -0.0004254611     21468.47
      8421.6     1.018254      1.29818 -0.0004174961     21468.48
      8421.8     1.019421     1.298093 -0.000392131     21468.34
        8422     1.020625     1.298016 -0.0003637883     21468.25
      8422.2     1.021867     1.297953 -0.0003454109     21468.34
      8422.4     1.023123     1.297889 -0.0003511337     21468.36
      8422.6     1.024378     1.297817 -0.000385467     21468.19
      8422.8     1.025642     1.297735 -0.0004099532     21467.98
        8423     1.026945     1.297644 -0.0004179876     21467.91
      8423.2     1.028289     1.297561 -0.0004381278     21467.97
      8423.4     1.029655     1.297483 -0.0004515896     21468.01
      8423.6      1.03103     1.297385 -0.0004682268     21467.98
      8423.8     1.032414     1.297283 -0.0004977676     21467.94
        8424     1.033809     1.297186 -0.0004969498     21467.91
      8424.2     1.035213     1.297084 -0.000483472     21467.92
      8424.4     1.036636     1.296987 -0.0004756191      21468.1
      8424.6     1.038075     1.296896 -0.0004474541     21468.36
      8424.8     1.039522     1.296806 -0.0004353786     21468.47
        8425     1.040982     1.296726 -0.0004430032     21468.61
      8425.2     1.042452     1.296639 -0.0004067275     21468.75
      8425.4     1.043921     1.296542 -0.0003751963     21468.77
      8425.6     1.045395      1.29648 -0.0003627159     21468.77
      8425.8     1.046869     1.296426 -0.0003353499     21468.73
        8426     1.048348     1.296349 -0.0003579015      21468.6
      8426.2     1.049847     1.296274 -0.0003940923      21468.5
      8426.4      1.05135     1.296194 -0.0003854703     21468.58
      8426.6     1.052832     1.296111 -0.0003986735     21468.72
      8426.8     1.054287      1.29604 -0.000425393     21468.73
        8427      1.05574     1.295955 -0.0004292474     21468.79
      8427.2     1.057209     1.295854 -0.0004348428     21468.98
      8427.4     1.058685     1.295768 -0.0004298407     21469.16
      8427.6     1.060132     1.295693 -0.0004186777     21469.19
      8427.8     1.061536     1.295611 -0.0004180472     21469.09
        8428     1.062908     1.295519 -0.0004133599        21469
      8428.2     1.064271     1.295433 -0.0003918743     21469.01
      8428.4      1.06562     1.295362 -0.0003665025     21469.08
      8428.6     1.066938     1.295297 -0.0003558577     21469.13
      8428.8     1.068204     1.295226 -0.0003688901     21469.16
        8429     1.069414     1.295148 -0.0003949649     21469.04
      8429.2     1.070569     1.295067 -0.0003896964     21468.84
      8429.4     1.071669     1.294981 -0.0003750687     21468.74
      8429.6     1.072705     1.294914 -0.0003892696     21468.56
      8429.8     1.073674     1.294848 -0.0003869398      21468.2
        8430     1.074579     1.294755 -0.0003802164     21467.77
      8430.2     1.075426     1.294672 -0.000376086     21467.41
      8430.4     1.076211      1.29461 -0.0003423757     21467.03
      8430.6     1.076921     1.294547 -0.0003116765      21466.5
      8430.8     1.077561     1.294481 -0.0002951233     21465.85
        8431     1.078133     1.294422 -0.0002826609     21465.14
      8431.2     1.078635     1.294374 -0.0003005026     21464.28
      8431.4     1.079067     1.294321 -0.0003440976     21463.14
      8431.6     1.079428     1.294241 -0.0003619359     21461.92
      8431.8      1.07972     1.294147 -0.000357581     21460.63
        8432     1.079939     1.294084 -0.0003407232     21458.87
      8432.2     1.080077     1.294035 -0.0003262754     21456.45
      8432.4     1.080137     1.293968 -0.0003276236     21453.53
      8432.6     1.080133     1.293886 -0.000325842     21450.29
      8432.8     1.080061     1.293822 -0.0003118393     21446.51
        8433     1.079916     1.293775 -0.0002835461     21442.17
      8433.2     1.079705     1.293719 -0.0002633454     21437.34
      8433.4     1.079427     1.293659 -0.0002590562     21431.73
      8433.6     1.079075     1.293611 -0.0002767935     21425.39
      8433.8     1.078642     1.293567 -0.0002888288     21418.74
        8434     1.078132     1.293498 -0.0002908131     21412.03
      8434.2     1.077547     1.293428 -0.0003123107     21405.27
      8434.4     1.076884     1.293379 -0.0003135458     21398.57
      8434.6      1.07614     1.293318 -0.0003089936     21392.34
      8434.8     1.075319     1.293247 -0.000329564     21386.93
        8435     1.074423     1.293181 -0.0003529988     21382.44
      8435.2     1.073454     1.293115  -0.00038052      21378.8
      8435.4     1.072429     1.293035 -0.0004149768     21376.26
      8435.6     1.071351     1.292942 -0.0004426103     21375.02
      8435.8     1.070211     1.292849 -0.0004564165     21375.05
        8436     1.069009     1.292761 -0.000459835     21376.39
      8436.2     1.067764      1.29267 -0.0004476571     21379.16
      8436.4     1.066486     1.292574 -0.0004464023     21383.35
      8436.6     1.065162     1.292491 -0.0004566736     21388.67
      8436.8     1.063795     1.292404 -0.0004416347     21394.73
        8437     1.062405     1.292305 -0.0004531035     21401.26
      8437.2     1.061005     1.292221 -0.0004848328     21408.25
      8437.4     1.059591     1.292128 -0.0004768974     21415.45
      8437.6     1.058151     1.292016 -0.0004746698     21422.62
      8437.8     1.056671     1.291923 -0.0004621371     21429.66
        8438     1.055173     1.291841 -0.0004089587     21436.24
      8438.2      1.05369     1.291759 -0.0003683405     21442.18
      8438.4     1.052231     1.291689 -0.0003525378     21447.59
      8438.6      1.05076     1.291628 -0.0003598533     21452.35
      8438.8      1.04925     1.291559 -0.0003919755     21456.38
        8439     1.047706     1.291471 -0.0004193891      21459.7
      8439.2      1.04616     1.291375 -0.0004199147     21462.37
      8439.4     1.044623     1.291293 -0.0004142993     21464.34
      8439.6     1.043086     1.291223 -0.0004021902     21465.69
      8439.8     1.041531     1.291139 -0.0003992925     21466.85
        8440     1.039942     1.291053 -0.0004374803     21467.72
      8440.2      1.03833     1.290974 -0.0004345027     21468.16
      8440.4     1.036723     1.290873 -0.000402475      21468.6
      8440.6     1.035121     1.290792 -0.0004263341     21468.93
      8440.8     1.033518     1.290731 -0.0004308182     21469.04
        8441     1.031925     1.290632 -0.0004146415      21469.2
      8441.2     1.030339     1.290529 -0.0004087983     21469.45
      8441.4     1.028757      1.29046 -0.000386091     21469.71
      8441.6     1.027183     1.290404 -0.0003765026        21470
      8441.8     1.025612     1.290324 -0.0003916981     21470.24
        8442     1.024039     1.290228 -0.0004158307     21470.32
      8442.2     1.022473     1.290147 -0.0004174847     21470.25
      8442.4     1.020938     1.290072 -0.0004060178     21470.27
      8442.6     1.019432      1.28999 -0.0004079288     21470.57
      8442.8      1.01793     1.289903 -0.0004088202     21470.98
        8443     1.016415      1.28982 -0.0003849143     21471.13
      8443.2     1.014916     1.289745 -0.000331528     21471.15
      8443.4      1.01347     1.289682 -0.0003046435     21471.23
      8443.6     1.012079     1.289638 -0.0003281184     21471.23
      8443.8     1.010718     1.289577 -0.0003711894     21471.05
        8444     1.009377     1.289482 -0.000413586     21470.88
      8444.2     1.008069     1.289385 -0.0004208051     21470.93
      8444.4     1.006811     1.289307 -0.0003922082        21471
      8444.6     1.005614      1.28924 -0.0003557161     21470.98
      8444.8     1.004471     1.289168 -0.0003344431     21471.01
        8445     1.003364       1.2891 -0.0003335378     21471.03
      8445.2      1.00228     1.289039 -0.0003472736        21471
      8445.4     1.001226     1.288973 -0.0003516558     21471.04
      8445.6     1.000214     1.288891 -0.000331633     21471.09
      8445.8    0.9992503     1.288819 -0.0003204635     21471.14
        8446    0.9983304     1.288774 -0.0003067108     21471.15
      8446.2    0.9974386     1.288717 -0.0003019311     21471.05
      8446.4    0.9965675     1.288645 -0.0003318677     21470.87
      8446.6    0.9957213     1.288577 -0.0003566674     21470.74
      8446.8    0.9949058     1.288508 -0.0003702379     21470.73
        8447    0.9941163     1.288431 -0.0003886702     21470.72
      8447.2    0.9933399     1.288349 -0.0004106364     21470.61
      8447.4     0.992565     1.288266 -0.0004157339     21470.48
      8447.6    0.9917928      1.28818 -0.0003895456     21470.41
      8447.8    0.9910188     1.288099 -0.0003595487      21470.3
        8448    0.9902291     1.288037 -0.0003332593     21470.03
      8448.2    0.9894153     1.287979 -0.0003080225     21469.83
      8448.4    0.9885712     1.287913 -0.0002875495     21469.65
      8448.6    0.9876995     1.287852 -0.0002782006     21469.38
      8448.8    0.9868182     1.287807 -0.0002821842     21469.33
        8449    0.9859134     1.287756 -0.0002746294     21469.38
      8449.2    0.9849566     1.287687  -0.00030923     21469.27
      8449.4    0.9839437     1.287633 -0.0003790784     21469.19
      8449.6    0.9828847      1.28756 -0.0003931486     21469.14
      8449.8    0.9817951     1.287453 -0.0003969198     21468.99
        8450    0.9806868     1.287373 -0.0003968583      21468.9
        8452    0.9672215     1.286578 -0.0003631696     21468.01
        8454    0.9523775     1.285873 -0.0003470703     21467.69
        8456    0.9401631     1.285151 -0.0003741108     21466.57
        8458    0.9324387     1.284415 -0.0003724111     21465.77
        8460    0.9307504     1.283612 -0.0003742737     21464.78
        8462    0.9346076     1.282888 -0.0003837329     21463.91
        8464    0.9430126     1.282157 -0.0003808622     21463.96
        8466    0.9544805     1.281345 -0.0003826268     21462.94
        8468    0.9673025     1.280565 -0.0003847719     21461.95
        8470     0.979983     1.279827 -0.0003696314     21461.96
        8472    0.9906371     1.279079 -0.0003656965     21462.24
        8474    0.9978197     1.278388 -0.0003617615     21462.44
        8476     1.000941      1.27764 -0.0003640155     21463.03
        8478     1.000706     1.276933 -0.0003735226     21463.03
        8480    0.9995253     1.276167 -0.000368157     21462.79
        8482     1.000569       1.2754 -0.0003690601     21462.83
        8484     1.006888     1.274695 -0.0003637361     21462.67
        8486     1.020208     1.273981 -0.0003607034     21461.87
        8488     1.039394     1.273257 -0.0003638123     21461.62
        8490     1.060031     1.272514 -0.0003728358     21461.71
        8492     1.077855     1.271784 -0.0003868263     21461.44
        8494     1.090478     1.270998   -0.0004044     21461.58
        8496     1.097789     1.270163 -0.0004222377     21461.46
        8498     1.101185     1.269279 -0.000429871     21460.72
        8500     1.101661     1.268406 -0.0004371775     21460.39
        8502     1.099064     1.267559 -0.0004418974     21459.78
        8504     1.092649     1.266665 -0.0004472806      21459.6
        8506     1.082096     1.265744 -0.0004472006     21459.03
        8508     1.067876     1.264828 -0.0004444336     21458.82
        8510     1.050072     1.263981 -0.0004338314     21458.47
        8512     1.029188      1.26311 -0.0004180248     21457.45
        8514     1.006558     1.262273 -0.0004144785     21456.65
        8516    0.9830828     1.261484 -0.0004031721     21456.34
        8518    0.9608931     1.260665 -0.0003937127     21455.53
        8520    0.9424947     1.259884 -0.0003998853     21452.32
        8522    0.9292939     1.259123 -0.0004016805     21447.52
        8524    0.9229367     1.258285 -0.000400901     21447.29
        8526    0.9238976     1.257452 -0.0004002175     21449.68
        8528    0.9310094     1.256677 -0.0003919202     21446.81
        8530    0.9423312     1.255922 -0.0003992655     21443.19
        8532    0.9555139     1.255149 -0.0004114575     21446.39
        8534     0.968996     1.254258 -0.0004167049     21450.17
        8536    0.9813182     1.253385 -0.0004212094     21451.18
        8538    0.9915614     1.252588 -0.0004086596     21451.29
        8540    0.9994726      1.25178 -0.0003978218     21450.84
        8542      1.00469     1.250989 -0.0003955075     21449.84
        8544     1.007262     1.250203 -0.0003879296     21448.66
        8546     1.007731     1.249424 -0.0003800284     21447.48
        8548     1.006838     1.248676 -0.0003775024     21446.73
        8550     1.005352     1.247948 -0.0003777289     21446.05
        8552     1.003592     1.247183 -0.0003741104     21444.99
        8554     1.001539     1.246402 -0.0003776269     21444.12
        8556    0.9989957     1.245683 -0.0003779258      21443.6
        8558    0.9958183     1.244927 -0.0003778034     21442.39
        8560    0.9927038     1.244159 -0.0003806414     21440.75
        8562    0.9910386      1.24338 -0.0003784262     21439.58
        8564    0.9921186     1.242638 -0.0003700531     21439.02
        8566    0.9967273       1.2419 -0.0003602338      21438.5
        8568     1.004714     1.241199 -0.0003537649     21438.27
        8570        1.015     1.240498 -0.0003519704     21437.09
        8572      1.02568     1.239808 -0.0003557205     21436.12
        8574     1.035123     1.239084 -0.0003550464     21435.07
        8576     1.042864     1.238353 -0.0003572499     21434.27
        8578     1.048842     1.237657 -0.0003574255     21434.18
        8580     1.053057      1.23695 -0.0003516091      21433.6
        8582     1.055498     1.236225 -0.0003534496      21432.8
        8584     1.055897      1.23554 -0.0003527154     21431.53
        8586     1.054059      1.23483 -0.0003506426     21430.07
        8588     1.049795     1.234128 -0.000353935     21429.32
        8590     1.043254      1.23342 -0.000363924     21428.18
        8592     1.034891     1.232709 -0.0003697966     21426.58
        8594     1.025021     1.231918 -0.0003730181     21425.77
        8596      1.01451      1.23117 -0.0003810381      21424.7
        8598       1.0044     1.230435 -0.000376916     21423.25
        8600    0.9951683     1.229661 -0.0003709869     21421.07
        8602    0.9874136     1.228903 -0.0003698481     21419.84
        8604     0.981535     1.228202 -0.0003643594      21418.8
        8606    0.9774262     1.227477 -0.0003719071      21417.5
        8608    0.9752026     1.226746 -0.0003752481     21416.47
        8610    0.9746913     1.225928 -0.0003623715     21415.15
        8612    0.9752458       1.2252 -0.0003661837     21412.77
        8614    0.9762317     1.224578 -0.0003684547     21411.11
        8616    0.9771878     1.223816 -0.0003622949      21408.6
        8618    0.9779277      1.22298 -0.0003772166     21403.05
        8620    0.9785332     1.222302 -0.0004054983     21389.71
        8622    0.9792517      1.22156 -0.0003730242     21250.06
        8624    0.9793993     1.220572 -0.0003748293     21019.48
        8626    0.9791135     1.219996 -0.0003766214        21141
        8628    0.9803204     1.219303 -0.000350178     21400.05
        8630    0.9813642     1.218547 -0.0003692671     21406.17
        8632    0.9829755     1.217771 -0.0003776938     21406.16
        8634    0.9851586     1.217042 -0.0003793408      21404.7
        8636     0.987776     1.216282 -0.0003734526     21403.43
        8638    0.9906019     1.215512 -0.0003742812     21401.95
        8640    0.9934218     1.214783 -0.0003740155     21400.55
        8642    0.9961233     1.214048 -0.0003661004     21399.87
        8644    0.9985972     1.213289 -0.0003618714      21398.8
        8646     1.000736     1.212583 -0.0003600389     21396.44
        8648     1.002613     1.211888 -0.0003509069     21394.18
        8650      1.00433     1.211167 -0.0003492487     21393.36
        8652     1.005971     1.210482 -0.0003492001     21391.64
        8654     1.007708     1.209789 -0.0003471776     21390.56
        8656     1.009621     1.209095 -0.0003492732      21389.2
        8658     1.011712      1.20839 -0.0003472338     21388.07
        8660     1.014009     1.207688 -0.0003477296     21386.65
        8662     1.016495     1.207012 -0.0003473708     21385.12
        8664     1.019057     1.206313 -0.0003489806     21383.71
        8666     1.021462     1.205611 -0.0003522511     21382.63
        8668     1.023323     1.204896 -0.0003519718     21381.11
        8670      1.02426     1.204194 -0.0003538544     21379.21
        8672     1.024135     1.203497 -0.0003561105     21376.86
        8674      1.02301      1.20278 -0.0003588708     21374.45
        8676     1.021056     1.202047 -0.0003631962      21372.1
        8678     1.018397     1.201323 -0.0003664162     21369.36
        8680     1.015094     1.200591 -0.000364697     21365.34
        8682     1.011418     1.199849 -0.0003434612     21358.48
        8684     1.007675      1.19913 -0.0003145546     21336.42
        8686     1.004239     1.198575 -0.0003127921     21262.09
        8688     1.001245     1.198075 -0.0003389756     21168.42
        8690    0.9983878     1.197346 -0.0003879096     21172.74
        8692    0.9960492     1.196418 -0.0004160661     21263.93
        8694    0.9948346     1.195472 -0.0004138816     21353.68
        8696    0.9946893     1.194746 -0.0003895147     21364.25
        8698    0.9950546     1.194035 -0.0003587059     21344.03
        8700    0.9955309     1.193302 -0.0003540637     21319.62
        8702    0.9957851     1.192602 -0.0003554699     21337.07
        8704    0.9954612     1.191914 -0.0003519779     21335.68
        8706    0.9942695     1.191192 -0.0003541682     21311.77
        8708    0.9922778     1.190486 -0.0003602992      21330.5
        8710    0.9896535     1.189769 -0.0003560837     21349.49
        8712     0.986701     1.189032 -0.0003546936     21350.12
        8714    0.9840174     1.188343 -0.0003519388     21349.56
        8716    0.9819404     1.187648 -0.0003447377     21348.25
        8718    0.9807702     1.186953 -0.0003474277     21346.19
        8720    0.9805084     1.186274 -0.0003492421     21343.79
        8722    0.9807953     1.185564 -0.0003435147     21342.06
        8724     0.981293     1.184854 -0.0003420485     21340.71
        8726    0.9817944     1.184205 -0.0003442588     21339.12
        8728    0.9823161     1.183537 -0.0003426814     21337.39
        8730    0.9829639     1.182809 -0.0003412838     21335.98
        8732    0.9838029     1.182113 -0.0003401124     21333.75
        8734     0.984817     1.181475 -0.0003351081     21331.65
        8736    0.9859518     1.180816 -0.0003308101     21330.09
        8738    0.9871922     1.180129 -0.0003342461     21328.64
        8740    0.9885377     1.179467 -0.0003338318     21326.59
        8742    0.9899788     1.178801 -0.0003308212     21324.64
        8744    0.9914872     1.178146 -0.0003324811     21322.48
        8746    0.9930314     1.177482 -0.0003294087     21320.85
        8748    0.9946052     1.176807 -0.0003296018     21318.96
        8750    0.9961875     1.176166 -0.0003268429     21317.37
        8752    0.9977765     1.175509 -0.0003247442     21315.24
        8754    0.9993397     1.174867 -0.0003290836     21312.97
        8756     1.000867     1.174209 -0.0003277916     21310.74
        8758     1.002312     1.173533 -0.0003266725     21308.38
        8760     1.003675     1.172887 -0.0003281824     21305.93
        8762     1.004995     1.172254 -0.0003266125     21304.12
        8764     1.006265     1.171583 -0.0003289945     21302.26
        8766     1.007501      1.17092 -0.0003296492     21300.21
        8768     1.008654     1.170255 -0.000328214     21297.27
        8770     1.009686     1.169617 -0.0003260655      21294.7
        8772     1.010561     1.168958 -0.0003255742     21292.97
        8774     1.011188     1.168311 -0.0003302097      21291.3
        8776     1.011551      1.16765 -0.0003366461     21288.78
        8778     1.011578     1.166975 -0.0003452954     21285.95
        8780     1.011224     1.166264 -0.0003449994     21282.57
        8782     1.010509     1.165549 -0.0003476422     21279.63
        8784     1.009398      1.16489 -0.0003431805      21277.9
        8786     1.007914     1.164194 -0.0003351413     21275.72
        8788     1.006221     1.163519 -0.0003387706      21272.8
        8790     1.004407     1.162868 -0.0003386038     21268.52
        8792     1.002542      1.16218 -0.0003377949      21264.2
        8794     1.000837     1.161485 -0.0003435458     21261.41
        8796    0.9994184     1.160817 -0.000343113     21259.09
        8798    0.9983005      1.16012 -0.0003374479     21257.08
        8800    0.9975234     1.159435 -0.0003392918     21254.69
        8802    0.9970797     1.158786 -0.0003330629     21252.32
        8804    0.9968736     1.158102 -0.0003287227     21249.45
        8806    0.9969093     1.157455 -0.0003318186     21247.25
        8808    0.9971209     1.156805 -0.0003324259     21244.44
        8810    0.9974045     1.156131 -0.0003360977     21240.66
        8812    0.9976973     1.155443 -0.0003375524     21236.42
        8814    0.9979766     1.154766 -0.0003354601     21232.44
        8816    0.9981539     1.154105 -0.0003344423     21228.58
        8818    0.9981787     1.153447 -0.0003323526     21224.68
        8820    0.9980452     1.152767 -0.0003363599     21219.41
        8822    0.9977237     1.152107 -0.0003349494     21212.45
        8824    0.9971875     1.151414 -0.0003373809     21202.12
        8826    0.9964822     1.150768 -0.0003535116     21186.73
        8828    0.9956659     1.150068 -0.0003677532     21149.39
        8830    0.9950654     1.149279 -0.0003602929     20891.62
        8832    0.9943602     1.148472 -0.0003212376      20414.5
        8834    0.9928085     1.147885 -0.0002977589     20481.84
        8836    0.9921363     1.147498 -0.0002721309     21014.58
        8838    0.9924422     1.146897 -0.0002792782     21205.63
        8840    0.9923123     1.146295 -0.0003150306     21192.76
        8842    0.9921562     1.145651 -0.0003227315     21176.62
        8844    0.9919269     1.144978 -0.0003282714     21187.63
        8846    0.9916989     1.144315 -0.0003290897     21204.31
        8848    0.9914765     1.143669 -0.0003248157     21205.76
        8850    0.9913005     1.143018 -0.0003201794      21203.8
        8852    0.9912172      1.14238 -0.0003173762     21201.95
        8854    0.9912225     1.141754 -0.0003206331     21198.77
        8856    0.9913255      1.14113 -0.0003205048     21195.01
        8858    0.9915611     1.140453 -0.0003203409     21191.47
        8860    0.9919257     1.139816 -0.0003211905     21187.79
        8862    0.9924358     1.139191 -0.0003090673      21184.3
        8864    0.9930886      1.13856 -0.0003091492     21181.29
        8866    0.9938587     1.137981 -0.0003110032     21178.85
        8868    0.9947073     1.137342 -0.0003094432     21176.02
        8870    0.9956033     1.136703 -0.0003158937     21173.39
        8872    0.9965577     1.136085 -0.000313365     21171.24
        8874    0.9975601     1.135454 -0.0003097042     21168.43
        8876    0.9986087     1.134835 -0.0003083699     21165.83
        8878    0.9997228     1.134226 -0.0003056315     21162.92
        8880     1.000898     1.133618 -0.000305337     21159.51
        8882     1.002117     1.133009 -0.0003078839     21156.47
        8884     1.003326     1.132393 -0.0003068882     21153.75
        8886     1.004476     1.131763 -0.0003044039     21150.56
        8888     1.005526     1.131162 -0.0002995773     21147.08
        8890     1.006438     1.130573 -0.0003010006      21144.6
        8892     1.007169     1.129996 -0.0003064989     21141.63
        8894      1.00769     1.129355 -0.0003090691      21138.5
        8896     1.007964      1.12871 -0.0003119715     21135.32
        8898     1.007981     1.128101 -0.0003083376     21132.58
        8900     1.007712       1.1275 -0.0003050605     21130.12
        8902       1.0072     1.126888 -0.0003043929     21127.25
        8904     1.006533      1.12627 -0.0003059495     21124.21
        8906     1.005705     1.125666 -0.0003067684     21120.79
        8908     1.004775     1.125053 -0.0003086541     21118.48
        8910      1.00389     1.124434 -0.0003117852     21116.59
        8912     1.003071     1.123801 -0.0003117364     21113.19
        8914     1.002362     1.123171 -0.0003104617     21110.17
        8916     1.001807     1.122559 -0.000307878     21107.21
        8918      1.00138      1.12195 -0.000302754      21103.9
        8920     1.001029     1.121338 -0.000300572     21100.61
        8922     1.000761     1.120749 -0.0003020587     21097.18
        8924     1.000609     1.120154 -0.0003010289     21093.22
        8926     1.000499     1.119534 -0.0002998875     21089.67
        8928     1.000449     1.118929 -0.0002969459     21086.08
        8930     1.000477      1.11835 -0.0002943347     21082.76
        8932     1.000553     1.117779 -0.0002925347     21080.01
        8934     1.000658     1.117179 -0.0002901477     21074.83
        8936     1.000837     1.116589 -0.0002878006     21011.93
        8938     1.000972     1.116029 -0.0002830877     20921.81
        8940     1.001061     1.115476 -0.0002800287     20976.53
        8942     1.001356     1.114914 -0.0002803077     21047.24
        8944     1.001543     1.114349 -0.0002832291     21048.97
        8946     1.001677     1.113787  -0.00028252     21046.95
        8948     1.001781      1.11321 -0.0002821928     21043.89
        8950     1.001873     1.112654 -0.0002807358     21041.03
        8952     1.001954     1.112091 -0.0002787701     21037.86
        8954     1.002037     1.111541 -0.0002791628     21034.47
        8956      1.00214      1.11098 -0.0002768923     21030.49
        8958     1.002231     1.110421 -0.0002758485      21027.5
        8960     1.002288     1.109876 -0.0002726834     21023.69
        8962     1.002331     1.109334 -0.0002672113     21019.63
        8964     1.002359     1.108799 -0.0002641743     21015.48
        8966     1.002372     1.108283 -0.0002577849     21011.31
        8968     1.002398     1.107763 -0.0002526335     21006.89
        8970     1.002465     1.107272 -0.0002550876     21002.73
