# This file has been produced by extranormal (v 1.0.1 - February 23, 2017)
# O. Roudenko - Synchrotron SOLEIL. Covered by GPL licence.
#Data from HDF File: /nfs/ruche-rock/rock-soleil/com-rock/2021/Projets/20210209_Hilde/InSitu/10Ni-10Fe_50BN/10Ni-10Fe_50BN_RT_air/10Ni-10Fe_50BN_RT_air_00002.nxs to 10Ni-10Fe_50BN_RT_air_00202.nxs
#Time at start=2021-02-09 19:06:02.773
#Time from start (seconds)=505.310528044
#Sample temperature (C)=24.3
# Normalization -------------
# pivot spectrum: Pivot_Ni_10Ni-10Fe_50BN_RT_air_av2000_00001.txt
# E0=8333.0   Eshift=5.16
# E0_pivot = 8333.0
# pre-edge params: from E0_pivot-182.0 to E0_pivot-50.0
# pre-edge range: [8151.0, 8283.0]
# post-edge params: from E0_pivot+100.0 to E0_pivot+640.0
# post-edge range: [8433.0, 8970.0]
# I jump at E0_pivot = 0.949010690723
# shifted energy	normalized	reference	ref.derivative	I0
        8150  0.001504221     1.411381 -0.001162471     21534.05
        8152  0.001504221     1.411381 -0.001162471     21534.05
        8154  0.001504221     1.411381 -0.001162471     21534.05
        8156  0.001504221     1.411381 -0.001162471     21534.05
        8158  0.001415279     1.408894  -0.00125563     21535.16
        8160  0.001288531     1.406207 -0.001263046     21536.71
        8162   0.00114276     1.403836 -0.001284626     21537.73
        8164  0.001020901     1.401276 -0.001246125     21538.18
        8166 0.0008989253     1.398617 -0.001245818     21538.99
        8168 0.0008478428     1.396238 -0.001261182     21540.06
        8170 0.0007526783     1.393869 -0.001260816     21541.21
        8172 0.0005907543     1.391187 -0.001280661     21542.37
        8174 0.0004776613     1.388531 -0.001287191     21543.44
        8176 0.0003978965     1.385993 -0.001244808     21544.87
        8178 0.0003168891     1.383572  -0.00126144     21546.34
        8180 0.0002376819     1.381228  -0.00126353     21547.75
        8182 0.0001173778     1.378439  -0.00125421     21548.36
        8184 1.028203e-05     1.375885 -0.001271542     21549.06
        8186 -6.296905e-05     1.373538 -0.001240753     21549.97
        8188 -0.0001213792     1.371056 -0.001250744      21551.7
        8190 -0.0001118009     1.368513 -0.001283806     21553.65
        8192 -0.000119356     1.365879 -0.001257933     21554.74
        8194 -0.0002328026     1.363267 -0.001244532     21555.81
        8196 -0.0002785164     1.360992  -0.00124941     21557.12
        8198 -0.0003070813     1.358557 -0.001234772        21558
        8200 -0.0003417712     1.355883 -0.001229411      21559.3
        8202 -0.0003646121     1.353389 -0.001238727     21560.64
        8204 -0.000449273     1.351157 -0.001246752     21561.57
        8206 -0.0004926468     1.348647 -0.001231807     21562.72
        8208 -0.0005135828     1.345909 -0.001252254     21563.81
        8210 -0.0005266027     1.343535 -0.001256336     21565.19
        8212 -0.0005066998     1.341139 -0.001235015      21566.3
        8214 -0.0005332542     1.338597 -0.001240276     21567.18
        8216 -0.0006120136     1.336029 -0.001245138     21567.93
        8218 -0.0006686016     1.333613 -0.001243496     21568.81
        8220 -0.0007139346     1.331178 -0.001226698     21569.42
        8222 -0.0007299473     1.328649 -0.001245903      21570.3
        8224 -0.0007192333     1.326216 -0.001278393     21571.25
        8226 -0.0007370983     1.323645 -0.001267978     21572.66
        8228 -0.0007230985     1.320951 -0.001256824        21574
        8230 -0.0007246193     1.318505 -0.001244291     21574.04
        8232 -0.0007674366     1.316161 -0.001221258     21574.02
        8234 -0.0007486725     1.313691 -0.001210533     21575.21
        8236 -0.000759754     1.311181 -0.001211327     21575.84
        8238 -0.0007906194     1.308821 -0.001212188     21576.79
        8240 -0.0007727535      1.30647 -0.001202212     21577.54
        8242 -0.0007584829     1.303994 -0.001181034     21578.27
        8244 -0.0007476214     1.301563 -0.001177543     21578.95
        8246 -0.0007037916     1.299372 -0.001167897     21579.72
        8248 -0.0007378916      1.29705 -0.001164652     21580.72
        8250 -0.0007439223      1.29465 -0.001168268     21581.68
        8252 -0.0006971274     1.292246 -0.001150056     21582.12
        8254 -0.000653043     1.290026 -0.001133558     21582.64
        8256 -0.0005677968      1.28785 -0.001134087     21582.76
        8258 -0.0005165827     1.285582 -0.001144833     21582.02
        8260 -0.0004828824     1.283173 -0.001136613      21582.4
        8262 -0.0004153848     1.280867 -0.001132107     21583.06
        8264 -0.0003928207     1.278757 -0.001123513     21582.86
        8266 -0.000331686     1.276525 -0.001114074     21582.94
        8268 -0.0002154836     1.274185 -0.001137488     21583.44
        8270 -0.0001777393     1.271955 -0.001141346     21583.22
        8272 -0.0001040727     1.269657 -0.001113861     21583.21
        8274 2.735905e-06     1.267394 -0.001118531     21583.17
        8276 4.588625e-05     1.265274 -0.001109542      21582.8
        8278 0.0001741596     1.263007 -0.001120089     21582.71
        8280 0.0003413614     1.260781 -0.001129928     21582.56
      8280.2 0.0003509842     1.260555 -0.001123813     21582.47
      8280.4 0.0003606069     1.260329 -0.001117699     21582.38
      8280.6 0.0003702297     1.260103 -0.001111584     21582.29
      8280.8 0.0003798524     1.259877 -0.001105469     21582.21
        8281 0.0003894752     1.259651 -0.001099354     21582.12
      8281.2 0.0003996501     1.259421 -0.001094507     21582.02
      8281.4 0.0004120336     1.259174 -0.001094731      21581.9
      8281.6 0.0004244171     1.258927 -0.001094954     21581.78
      8281.8 0.0004368006     1.258681 -0.001095178     21581.66
        8282 0.0004491841     1.258434 -0.001095402     21581.53
      8282.2 0.0004615677     1.258187 -0.001095625     21581.41
      8282.4 0.0004739512      1.25794 -0.001095849     21581.29
      8282.6 0.0004863347     1.257693 -0.001096072     21581.17
      8282.8 0.0004987182     1.257446 -0.001096296     21581.04
        8283 0.0005111018     1.257199  -0.00109652     21580.92
      8283.2 0.0005243044     1.256965 -0.001096819     21580.82
      8283.4 0.0005407838     1.256782 -0.001097419     21580.78
      8283.6 0.0005572632       1.2566  -0.00109802     21580.74
      8283.8 0.0005737425     1.256417 -0.001098621      21580.7
        8284 0.0005902219     1.256235 -0.001099222     21580.65
      8284.2 0.0006067013     1.256052 -0.001099823     21580.61
      8284.4 0.0006231806      1.25587 -0.001100424     21580.57
      8284.6   0.00063966     1.255687 -0.001101024     21580.53
      8284.8 0.0006561394     1.255505 -0.001101625     21580.49
        8285 0.0006726187     1.255322 -0.001102226     21580.45
      8285.2  0.000689799     1.255127 -0.001087711     21580.41
      8285.4 0.0007035303     1.254867 -0.001089057     21580.29
      8285.6 0.0006986843     1.254561  -0.00131908      21579.9
      8285.8 0.0007205356     1.254285  -0.00124017     21579.74
        8286 0.0007397588     1.254072 -0.001152857     21579.71
      8286.2 0.0007361942     1.253875 -0.001075877     21579.53
      8286.4 0.0007454449     1.253639 -0.001025885     21579.19
      8286.6 0.0007555703     1.253424 -0.000985715     21578.83
      8286.8 0.0007643511     1.253251  -0.00088003     21578.58
        8287 0.0007768769     1.253087 -0.0008339325      21578.4
      8287.2 0.0007740667     1.252935  -0.00090803     21578.02
      8287.4 0.0007682113     1.252757 -0.001029108     21577.62
      8287.6 0.0007771248     1.252524  -0.00113874     21577.39
      8287.8 0.0007971447     1.252263 -0.001185582     21577.17
        8288 0.0008185935     1.252024 -0.001177662     21576.95
      8288.2 0.0008361245     1.251809  -0.00117615     21576.72
      8288.4 0.0008502877     1.251582 -0.001244498     21576.37
      8288.6 0.0008669589     1.251322 -0.001340968     21575.98
      8288.8 0.0008994528     1.251028 -0.001355275     21575.68
        8289 0.0009397781     1.250736 -0.001277765      21575.5
      8289.2 0.0009602764     1.250498 -0.001157137     21575.29
      8289.4  0.000970741       1.2503 -0.001055972     21575.02
      8289.6 0.0009864659     1.250102  -0.00100258      21574.8
      8289.8    0.0010074     1.249891 -0.001008035     21574.68
        8290  0.001023711     1.249696 -0.001038835     21574.47
      8290.2  0.001050127     1.249494   -0.0010592     21574.24
      8290.4  0.001087772     1.249271  -0.00116545     21574.07
      8290.6  0.001113244     1.249044 -0.001311478     21573.91
      8290.8  0.001134275     1.248764 -0.001371652     21573.77
        8291  0.001147992     1.248445  -0.00130632     21573.57
      8291.2  0.001148741     1.248174 -0.001173977     21573.23
      8291.4  0.001157081     1.247999 -0.001058145     21572.87
      8291.6  0.001174252     1.247824 -0.0009635575     21572.49
      8291.8  0.001191692     1.247598 -0.0009241475     21572.05
        8292   0.00120998     1.247403 -0.000895555     21571.49
      8292.2  0.001238276      1.24726 -0.0008796675     21570.87
      8292.4    0.0012707     1.247108  -0.00092808     21570.22
      8292.6  0.001294973     1.246894 -0.001033008     21569.57
      8292.8  0.001316653     1.246661 -0.001083515     21568.97
        8293  0.001339327     1.246433 -0.0009652875     21568.42
      8293.2  0.001355005     1.246241 -0.0007727875     21567.82
      8293.4  0.001356288     1.246122 -0.000623475     21567.11
      8293.6  0.001366308     1.246042 -0.0006183425     21566.45
      8293.8  0.001394686     1.245934 -0.0007726175     21565.88
        8294  0.001427844     1.245747  -0.00092478     21565.31
      8294.2  0.001451743     1.245504 -0.000966315      21564.6
      8294.4  0.001467915     1.245303 -0.0009568375     21563.85
      8294.6  0.001486405     1.245161 -0.000930335     21563.21
      8294.8  0.001509565     1.244981 -0.000947525     21562.73
        8295  0.001523431      1.24476 -0.000998195        21562
      8295.2  0.001532699     1.244545 -0.0009899675     21561.12
      8295.4  0.001555319     1.244363   -0.0009084     21560.39
      8295.6  0.001590959     1.244189 -0.000846905     21559.57
      8295.8  0.001633365     1.244033   -0.0009198     21558.71
        8296  0.001671764     1.243867 -0.001013383     21557.79
      8296.2  0.001696993     1.243627 -0.001104213     21556.54
      8296.4  0.001718695     1.243378 -0.001181835     21555.22
      8296.6  0.001752066      1.24315 -0.001135132     21553.99
      8296.8  0.001797238     1.242922  -0.00110791     21552.75
        8297   0.00183051     1.242719  -0.00116672     21551.37
      8297.2  0.001850702     1.242492 -0.001200365     21549.87
      8297.4  0.001872467     1.242216 -0.001205345     21548.38
      8297.6  0.001900582     1.241961 -0.001183187     21546.89
      8297.8  0.001918463     1.241754 -0.001165227     21545.17
        8298  0.001934365     1.241546 -0.001174708     21543.32
      8298.2  0.001967756     1.241284  -0.00124531     21541.59
      8298.4   0.00200241     1.241022 -0.001283492     21539.56
      8298.6  0.002041886     1.240758  -0.00113243     21537.19
      8298.8  0.002092211     1.240519 -0.0009472925     21534.66
        8299  0.002143913     1.240378 -0.000824005      21531.9
      8299.2  0.002202236     1.240264  -0.00077303     21528.79
      8299.4   0.00226561     1.240099 -0.0007989675     21525.21
      8299.6  0.002323364       1.2399 -0.000853095     21521.06
      8299.8  0.002375519     1.239739 -0.000871185     21516.21
        8300  0.002431494     1.239581 -0.0007925325     21510.52
      8300.2   0.00250023     1.239402  -0.00074869      21503.8
      8300.4  0.002581265     1.239266 -0.0006880425     21495.78
      8300.6  0.002668369      1.23914  -0.00054039     21486.23
      8300.8   0.00275548     1.239031 -0.0004937125     21474.63
        8301  0.002840182      1.23897  -0.00048967     21460.56
      8301.2  0.002924962     1.238871 -0.000472305     21444.45
      8301.4  0.003014488     1.238748   -0.0005273     21426.57
      8301.6  0.003096303     1.238653 -0.000640595     21406.78
      8301.8  0.003136506     1.238548  -0.00079245     21384.83
        8302  0.003127384     1.238359  -0.00093349     21361.39
      8302.2  0.003087691     1.238114 -0.001061033     21337.88
      8302.4  0.003042995     1.237906  -0.00107706     21315.91
      8302.6  0.002997056     1.237699  -0.00096572     21296.32
      8302.8  0.002946716     1.237497 -0.0008330975     21279.32
        8303  0.002893946     1.237342   -0.0006685     21264.79
      8303.2  0.002852287      1.23724 -0.0004600175     21252.53
      8303.4  0.002839123     1.237164  -0.00020344     21241.88
      8303.6  0.002865478     1.237129  7.37325e-05     21231.97
      8303.8  0.002936142     1.237179   0.00041955     21221.76
        8304  0.003058738     1.237299 0.0008175775     21210.31
      8304.2  0.003234929       1.2375   0.00115782     21196.65
      8304.4  0.003474947     1.237783  0.001536735      21179.8
      8304.6  0.003798955     1.238105  0.002027418     21158.45
      8304.8  0.004183521     1.238528   0.00259278     21130.65
        8305  0.004609717     1.239122  0.003131833     21094.24
      8305.2  0.005086076     1.239857  0.003531543     21047.15
      8305.4  0.005609925     1.240611  0.003698195     20987.18
      8305.6  0.006163794     1.241353  0.003476842     20911.63
      8305.8  0.006722484      1.24208  0.002766157     20817.62
        8306  0.007253044     1.242639  0.001401077      20703.6
      8306.2  0.007683995     1.242824  -0.00071034     20571.95
      8306.4  0.007911393     1.242474 -0.003427135      20427.6
      8306.6  0.007836687     1.241512 -0.006419533     20276.31
      8306.8  0.007428044     1.239897 -0.009221768     20124.57
        8307  0.006692565     1.237688  -0.01130895     19982.09
      8307.2  0.005673216     1.235097  -0.01230527     19861.17
      8307.4  0.004475126     1.232465  -0.01208348     19772.85
      8307.6   0.00328436     1.230053  -0.01080423        19723
      8307.8  0.002278769     1.228021 -0.008886555     19713.09
        8308  0.001558121     1.226453 -0.006760332     19741.27
      8308.2  0.001160664     1.225356 -0.004792855     19802.08
      8308.4  0.001043187     1.224645 -0.003198215     19886.67
      8308.6  0.001108665     1.224187 -0.001970377     19985.39
      8308.8  0.001260687     1.223895 -0.0009695925     20091.73
        8309    0.0013949     1.223779 -6.27875e-05     20201.81
      8309.2  0.001450915     1.223869 0.0008169125     20313.18
      8309.4  0.001448554     1.224137  0.001662328      20423.6
      8309.6  0.001443172     1.224548  0.002461545     20530.42
      8309.8  0.001501017     1.225109   0.00319344     20631.83
        8310  0.001675511     1.225838   0.00380322     20726.45
      8310.2  0.001979714     1.226691  0.004171173     20811.47
      8310.4  0.002385457     1.227591  0.004187305     20883.96
      8310.6  0.002852646     1.228446  0.003906502     20942.12
      8310.8  0.003357004     1.229188  0.003481087     20985.95
        8311  0.003878987     1.229817  0.003069457     21015.81
      8311.2  0.004383387     1.230376   0.00276869     21031.79
      8311.4  0.004835305     1.230902   0.00271936     21034.46
      8311.6  0.005251331     1.231403  0.002942218     21026.01
      8311.8  0.005685624     1.231992   0.00326947     21007.84
        8312  0.006166275     1.232729  0.003768423     20978.92
      8312.2  0.006656659     1.233517  0.004293478     20936.48
      8312.4  0.007150707     1.234418   0.00457209     20880.91
      8312.6  0.007684824     1.235427  0.004567777     20812.89
      8312.8  0.008276353     1.236387   0.00402684     20730.23
        8313  0.008837505     1.237172  0.002778995     20627.99
      8313.2  0.009330196     1.237639  0.000867985     20505.44
      8313.4  0.009757771      1.23765  -0.00175593     20366.81
      8313.6   0.01004356     1.237082 -0.004971925     20218.03
      8313.8  0.009960131     1.235767 -0.008345488     20064.26
        8314   0.00933403     1.233662  -0.01124615     19913.19
      8314.2  0.008194533     1.230974  -0.01303525     19777.81
      8314.4  0.006720983     1.228085  -0.01331338      19674.3
      8314.6   0.00518443     1.225339  -0.01210204     19614.92
      8314.8  0.003848733     1.223011   -0.0100454     19604.17
        8315  0.002862277     1.221292 -0.007762822     19638.25
      8315.2  0.002280609     1.220048 -0.005583957     19709.26
      8315.4  0.002052059     1.219128  -0.00385947     19807.25
      8315.6   0.00203551     1.218544  -0.00251887     19922.13
      8315.8  0.002098714     1.218205  -0.00138184     20046.55
        8316  0.002150124     1.218033 -0.000417215     20176.03
      8316.2  0.002166574     1.218023   0.00052314      20308.2
      8316.4  0.002202898      1.21821   0.00154006     20441.38
      8316.6   0.00231738     1.218623  0.002608445     20573.35
      8316.8  0.002552991     1.219265  0.003605095     20701.74
        8317  0.002935369      1.22011  0.004360698     20824.17
      8317.2  0.003464308     1.221094  0.004662642     20936.74
      8317.4  0.004086404     1.222112  0.004320757     21034.04
      8317.6  0.004697856     1.222995  0.003437912     21111.43
      8317.8   0.00519648     1.223566  0.002351545     21169.06
        8318   0.00554908     1.223845   0.00141693     21210.88
      8318.2  0.005779376     1.223993 0.0007983725     21242.17
      8318.4   0.00593402     1.224129  0.000445335      21266.9
      8318.6  0.006069861     1.224205 0.0002429375     21287.25
      8318.8  0.006211528     1.224201   7.3435e-05     21304.64
        8319  0.006348139     1.224187  1.64475e-05     21320.36
      8319.2  0.006479987     1.224188    8.847e-05     21335.26
      8319.4   0.00660865     1.224218 0.0001325875     21349.78
      8319.6  0.006732479     1.224272  8.27875e-05     21364.14
      8319.8   0.00684963     1.224293   -1.906e-05      21378.5
        8320  0.006963828     1.224254 -6.02675e-05     21392.83
      8320.2   0.00707014     1.224203 -1.42775e-05     21407.18
      8320.4  0.007152991     1.224223 0.0001229325     21421.79
      8320.6  0.007212355     1.224282 0.0003151925     21436.89
      8320.8  0.007271133     1.224352  0.000489435      21452.4
        8321  0.007346497     1.224455 0.0006700425     21468.26
      8321.2  0.007425239     1.224615  0.000874725     21484.66
      8321.4  0.007531673     1.224818  0.001069568      21501.4
      8321.6   0.00768369     1.225052  0.001141115     21517.93
      8321.8  0.007862216     1.225311   0.00115586     21533.56
        8322  0.008066031     1.225528  0.001224878     21547.72
      8322.2  0.008287495     1.225743  0.001248203     21559.96
      8322.4  0.008505255     1.226032  0.001313593     21569.93
      8322.6  0.008702274     1.226309  0.001401397     21577.49
      8322.8  0.008877508     1.226579  0.001335452     21582.94
        8323  0.009037577     1.226864  0.001213015     21586.79
      8323.2  0.009187832       1.2271  0.001105532     21589.46
      8323.4  0.009337875      1.22728  0.001058215     21591.61
      8323.6  0.009488707     1.227463  0.001085283     21593.46
      8323.8  0.009636315      1.22771  0.001145335     21594.86
        8324  0.009790567     1.227969  0.001152982     21596.03
      8324.2   0.00995323     1.228196  0.001045087     21597.12
      8324.4   0.01011843     1.228385 0.0009329325     21598.11
      8324.6   0.01028385     1.228546 0.0009209075     21599.04
      8324.8   0.01045149     1.228715  0.001019855     21599.77
        8325   0.01062067     1.228933  0.001139725     21600.35
      8325.2   0.01079024     1.229201   0.00125483     21601.03
      8325.4   0.01097114     1.229458  0.001404315     21601.79
      8325.6   0.01116651     1.229719  0.001588005     21602.56
      8325.8   0.01136935     1.230056   0.00181805     21603.29
        8326   0.01157397     1.230472   0.00207404     21603.84
      8326.2   0.01178209     1.230913  0.002337245     21604.27
      8326.4   0.01199926     1.231378   0.00251305     21604.76
      8326.6   0.01222599     1.231926  0.002645793     21605.27
      8326.8   0.01245266     1.232482  0.002854533     21605.54
        8327   0.01268378     1.233029   0.00316329     21605.74
      8327.2   0.01293031     1.233662  0.003616098     21606.16
      8327.4   0.01318171     1.234457  0.004187378     21606.45
      8327.6   0.01344041     1.235375  0.004836043      21606.6
      8327.8   0.01371457     1.236379  0.005456395      21606.8
        8328   0.01399836      1.23753  0.006071538     21607.07
      8328.2   0.01427837     1.238822   0.00676587     21607.31
      8328.4   0.01456407     1.240232  0.007557113     21607.47
      8328.6   0.01487899     1.241792  0.008494785     21607.58
      8328.8   0.01521209     1.243576   0.00961699     21607.77
        8329   0.01555977     1.245618   0.01096361     21607.87
      8329.2   0.01592487     1.247926   0.01256481     21607.78
      8329.4   0.01630489     1.250563   0.01449198     21607.76
      8329.6   0.01672052     1.253628   0.01680943     21607.95
      8329.8   0.01717919     1.257211   0.01957985     21608.24
        8330   0.01766494     1.261373   0.02298782     21608.41
      8330.2   0.01819236     1.266227   0.02732935     21608.53
      8330.4   0.01878487     1.272018   0.03282511      21608.7
      8330.6   0.01945664     1.279075   0.03952236     21608.89
      8330.8   0.02021299     1.287634   0.04728228     21609.01
        8331    0.0210813     1.297844   0.05597395     21609.05
      8331.2   0.02208804     1.309844   0.06569878     21609.01
      8331.4   0.02324033     1.323854   0.07652679     21608.86
      8331.6   0.02456172     1.340193   0.08817562     21608.62
      8331.8   0.02609025     1.359066   0.09987038      21608.3
        8332   0.02785402     1.380385     0.110727     21607.97
      8332.2   0.02982953      1.40375    0.1199915     21607.73
      8332.4   0.03194678     1.428774    0.1271466     21607.31
      8332.6   0.03411401     1.455059     0.132193     21606.56
      8332.8   0.03623886     1.482102    0.1351465     21605.77
        8333   0.03820898     1.509504    0.1360224     21604.93
      8333.2   0.03990392     1.536891    0.1351323     21604.04
      8333.4   0.04120498     1.563877    0.1327427     21603.22
      8333.6   0.04201031     1.590208    0.1290437     21602.19
      8333.8   0.04230509     1.615699    0.1241802     21600.92
        8334   0.04216379     1.640126    0.1185384     21599.59
      8334.2   0.04170652     1.663221    0.1125332     21598.22
      8334.4   0.04108606     1.685038    0.1063043     21596.99
      8334.6      0.04046     1.705725   0.09975659     21595.86
      8334.8   0.03997543      1.72517   0.09254566     21594.49
        8335   0.03977642     1.743026   0.08467652     21593.25
      8335.2   0.03993566     1.759075   0.07682846     21592.28
      8335.4   0.04045044     1.773466   0.06958915      21591.4
      8335.6   0.04131613     1.786632   0.06317838     21590.79
      8335.8   0.04254278     1.798698   0.05757739     21590.37
        8336   0.04411811     1.809618   0.05244985     21589.92
      8336.2   0.04597964     1.819528   0.04791586     21589.49
      8336.4   0.04808917     1.828592   0.04441666     21589.32
      8336.6   0.05045935      1.83703   0.04216678     21589.36
      8336.8   0.05313544     1.845151   0.04113013     21589.28
        8337   0.05612487     1.853262   0.04117026     21589.33
      8337.2    0.0593971     1.861496   0.04228885     21589.51
      8337.4   0.06292103     1.869967   0.04422807      21589.7
      8337.6   0.06671263     1.878982   0.04685239     21589.94
      8337.8   0.07081033     1.888644   0.05012839     21589.99
        8338   0.07527273     1.898978   0.05360191     21589.77
      8338.2    0.0801813     1.910069   0.05705009      21589.6
      8338.4   0.08563771     1.921864   0.06037341     21589.49
      8338.6    0.0917503     1.934284   0.06332056     21589.35
      8338.8   0.09867455     1.947277    0.0656702     21589.09
        8339    0.1065252     1.960726   0.06729181     21588.64
      8339.2    0.1154183       1.9744   0.06828563     21588.16
      8339.4    0.1255425     1.988118   0.06874912     21587.79
      8339.6    0.1371955     2.001906   0.06868706     21587.38
      8339.8    0.1506291     2.015725   0.06792103     21586.91
        8340    0.1658676     2.029349   0.06638497      21586.4
      8340.2    0.1827185     2.042455   0.06444575     21585.91
      8340.4    0.2011293     2.055014   0.06283279     21585.52
      8340.6    0.2212967     2.067282    0.0621119     21585.23
      8340.8    0.2434697     2.079616   0.06210167     21584.96
        8341    0.2675091     2.092144   0.06230597     21584.65
      8341.2    0.2927971     2.104695   0.06260822     21584.42
      8341.4    0.3186952     2.117126   0.06346256     21584.26
      8341.6     0.345058     2.129702   0.06537444     21583.97
      8341.8    0.3721207     2.142914   0.06835219     21583.82
        8342    0.3998702     2.156994   0.07200373     21583.84
      8342.2    0.4278051     2.171808   0.07580586     21583.73
      8342.4    0.4553041     2.187305    0.0796595      21583.5
      8342.6    0.4819965     2.203559   0.08396364     21583.19
      8342.8    0.5079558     2.220722   0.08902651     21582.86
        8343    0.5335989     2.238979   0.09450009     21582.66
      8343.2    0.5590388     2.258526   0.09959344     21582.49
      8343.4    0.5841271     2.279159    0.1044013     21582.31
      8343.6    0.6087632     2.300397    0.1087142     21582.16
      8343.8    0.6332732       2.3225    0.1123491     21581.81
        8344     0.658071     2.345498    0.1157976     21581.43
      8344.2    0.6834598     2.369038    0.1186133      21581.3
      8344.4    0.7096428     2.393035    0.1207878     21581.18
      8344.6    0.7369032     2.417391     0.122978     21581.04
      8344.8    0.7655501     2.442128    0.1249481        21581
        8345     0.795738     2.467421    0.1261768     21580.99
      8345.2     0.827298     2.492993    0.1261537     21580.91
      8345.4     0.859892     2.518332    0.1247043     21580.79
      8345.6    0.8932761     2.543051    0.1224327     21580.79
      8345.8    0.9275349     2.567184    0.1201073     21580.93
        8346    0.9626401     2.590939    0.1179468     21580.93
      8346.2    0.9980765     2.614418    0.1156091     21580.69
      8346.4     1.032814     2.637408    0.1126968     21580.64
      8346.6     1.066293     2.659671     0.109091     21580.59
      8346.8     1.098665     2.681097     0.104907     21580.34
        8347     1.130461     2.701691    0.1003109     21580.11
      8347.2     1.161605     2.721334   0.09533628      21579.8
      8347.4     1.191634      2.73992   0.08985539     21579.42
      8347.6     1.220124     2.757366   0.08434166     21579.13
      8347.8      1.24721     2.773575   0.07886963     21578.83
        8348     1.273475     2.788807    0.0724926     21578.43
      8348.2     1.299517     2.803016   0.06523477     21577.97
      8348.4     1.325513      2.81536    0.0567612     21577.46
      8348.6     1.351457     2.825763   0.04694531      21576.8
      8348.8     1.377519     2.834216   0.03767174     21576.05
        8349     1.404133     2.840572   0.02929614     21575.37
      8349.2     1.431625     2.845497   0.02127448     21574.51
      8349.4     1.460069       2.8492   0.01368124     21573.33
      8349.6     1.489297     2.851236  0.006776512     21571.97
      8349.8      1.51903     2.851517 9.292499e-05     21570.66
        8350      1.54893     2.850919 -0.008265293     21569.32
      8350.2     1.578395     2.849274  -0.01773291     21567.78
      8350.4     1.606426     2.844624  -0.02799954     21566.11
      8350.6     1.631967     2.837331  -0.03811424     21564.46
      8350.8     1.654148     2.828519  -0.04541322     21562.89
        8351     1.672221     2.818783  -0.05036357     21561.34
      8351.2     1.685211     2.808293  -0.05356883     21559.72
      8351.4     1.692189      2.79704  -0.05410359     21558.08
      8351.6     1.692637     2.785664  -0.05292882     21556.53
      8351.8     1.686639       2.7755  -0.05052136        21555
        8352     1.674311      2.76595  -0.04619486     21553.49
      8352.2     1.655785     2.756623  -0.04064438     21552.02
      8352.4     1.631567     2.748708  -0.03353063      21550.5
      8352.6     1.603017     2.742984  -0.02498083     21548.91
      8352.8     1.571503     2.739125  -0.01560478     21547.38
        8353     1.537836     2.736638 -0.006447492     21545.95
      8353.2     1.502306     2.736224  0.002282313     21544.47
      8353.4     1.465719     2.737826   0.01085511     21543.07
      8353.6     1.429389     2.740951   0.01767869     21541.94
      8353.8     1.394655     2.745322   0.02291112     21540.99
        8354     1.362278     2.750367   0.02782872     21540.16
      8354.2     1.332364     2.756155   0.03200228     21539.58
      8354.4     1.304694     2.763214   0.03564173     21539.43
      8354.6     1.279408     2.770924   0.03877495     21539.47
      8354.8     1.256774     2.778881    0.0408626     21539.61
        8355     1.236882     2.787175   0.04269528     21539.94
      8355.2     1.219425     2.795904   0.04425735     21540.42
      8355.4     1.204051      2.80508   0.04446562     21540.89
      8355.6     1.190446     2.814286   0.04316701     21541.29
      8355.8     1.178309     2.822748   0.04066189     21541.74
        8356     1.167269     2.830438   0.03759018     21542.19
      8356.2     1.156937      2.83761    0.0348327      21542.7
      8356.4     1.146975     2.844359   0.03261784     21543.36
      8356.6     1.137134     2.850614   0.03070225     21544.04
      8356.8     1.127197     2.856532   0.02825278     21544.65
        8357     1.116912     2.862171   0.02468179     21545.25
      8357.2     1.105955     2.866961   0.01983877     21545.75
      8357.4     1.094066     2.870359   0.01458992     21546.12
      8357.6     1.081218     2.872403    0.0103528     21546.35
      8357.8     1.067632     2.873843  0.007166155     21546.55
        8358     1.053447     2.875243  0.003943265      21546.8
      8358.2     1.038577     2.876092 0.0005910375     21546.99
      8358.4     1.022849     2.875558  -0.00308821     21546.98
      8358.6     1.006393     2.874316  -0.00643072     21546.94
      8358.8    0.9896723     2.872772  -0.00829393     21546.88
        8359    0.9732114     2.870948 -0.009835163     21546.77
      8359.2    0.9572298     2.868923  -0.01152108     21546.83
      8359.4    0.9416749     2.866448  -0.01272036     21546.98
      8359.6    0.9265771     2.863556  -0.01333545     21547.09
      8359.8    0.9122542     2.860771  -0.01331438     21547.19
        8360    0.8990623     2.858254  -0.01285308     21547.26
      8360.2    0.8871684     2.855797  -0.01213294     21547.38
      8360.4    0.8765554     2.853273   -0.0116201     21547.63
      8360.6    0.8672169     2.851065  -0.01156153     21547.88
      8360.8    0.8591806     2.848958  -0.01156517     21548.19
        8361    0.8524442     2.846547  -0.01160625     21548.61
      8361.2    0.8469244     2.844021  -0.01142257     21548.97
      8361.4    0.8425638      2.84178  -0.01110996     21549.27
      8361.6    0.8393345      2.83982  -0.01103263     21549.62
      8361.8    0.8372094     2.837659  -0.01137951     21550.02
        8362    0.8361231     2.835195  -0.01177401     21550.36
      8362.2    0.8360121     2.832677  -0.01183354     21550.61
      8362.4    0.8368362     2.830401   -0.0122743     21550.93
      8362.6    0.8385605     2.828193  -0.01366946     21551.35
      8362.8    0.8410801     2.825375  -0.01549264     21551.71
        8363    0.8442648     2.821741  -0.01770983     21551.87
      8363.2     0.848038     2.818007  -0.01947525     21551.98
      8363.4    0.8523748     2.814025  -0.01986435     21552.24
      8363.6    0.8572389     2.809795  -0.02007076     21552.61
      8363.8    0.8625243     2.805849  -0.02098999     21552.82
        8364     0.868052      2.80195  -0.02294341     21552.85
      8364.2    0.8736868     2.797233  -0.02475192     21553.03
      8364.4    0.8793888     2.791441  -0.02559449     21553.51
      8364.6    0.8851684     2.786048  -0.02513938     21553.82
      8364.8      0.89093     2.781475  -0.02367541     21554.07
        8365    0.8964976     2.777121  -0.02254749     21554.46
      8365.2    0.9017086       2.7725  -0.02217991     21554.77
      8365.4    0.9064739      2.76801  -0.02238336     21555.06
      8365.6    0.9107665     2.763731  -0.02204128     21555.48
      8365.8    0.9145692     2.759215  -0.02094587     21556.03
        8366    0.9178073     2.754867  -0.01912201     21556.45
      8366.2    0.9204376     2.751253  -0.01690081     21556.74
      8366.4     0.922457     2.748433  -0.01530971     21557.07
      8366.6    0.9238594     2.745694  -0.01469928     21557.38
      8366.8     0.924653     2.742619  -0.01430611     21557.66
        8367    0.9248602     2.739494  -0.01346797     21557.97
      8367.2    0.9245078     2.736988   -0.0121088      21558.3
      8367.4    0.9236146     2.734919  -0.01063841     21558.58
      8367.6    0.9222031     2.732932 -0.009749002     21558.81
      8367.8    0.9203059     2.730983 -0.009005212     21559.03
        8368    0.9179645     2.729189 -0.007814975     21559.16
      8368.2    0.9152353     2.727715  -0.00625312     21559.33
      8368.4    0.9121613      2.72668 -0.005067677     21559.66
      8368.6     0.908734     2.725981 -0.004661705     21560.02
      8368.8    0.9049518     2.725135 -0.004509415     21560.32
        8369     0.900884     2.723986 -0.004289355     21560.57
      8369.2    0.8966715     2.723073 -0.003725537     21560.83
      8369.4      0.89238     2.722549  -0.00297724     21561.13
      8369.6     0.887992     2.722155 -0.002347692      21561.4
      8369.8    0.8834557     2.721604  -0.00151332     21561.67
        8370    0.8787867     2.721195  -4.0885e-05     21562.07
      8370.2    0.8740913     2.721338  0.001927995      21562.4
      8370.4    0.8694946     2.722122   0.00388338     21562.46
      8370.6    0.8650201     2.723147  0.005346675     21562.62
      8370.8    0.8606092     2.724301   0.00622218     21562.86
        8371    0.8562159     2.725616  0.007374165     21562.99
      8371.2    0.8518854       2.7271  0.008981985     21563.04
      8371.4    0.8476982     2.729046   0.01062963     21563.08
      8371.6    0.8436828     2.731487   0.01211133      21563.1
      8371.8    0.8398088      2.73412   0.01248491     21563.11
        8372    0.8360738     2.736789   0.01173052     21563.25
      8372.2    0.8324797     2.739034   0.01176535     21563.37
      8372.4    0.8290242     2.740871   0.01275113     21563.33
      8372.6    0.8256994     2.743532   0.01454731     21563.43
      8372.8    0.8224721      2.74699   0.01697339     21563.66
        8373    0.8193264     2.750672   0.01818765     21563.79
      8373.2    0.8162981      2.75445   0.01875339     21563.69
      8373.4    0.8134257     2.758082   0.02010247     21563.64
      8373.6    0.8106887     2.761992   0.02114225     21563.78
      8373.8    0.8080284     2.766754   0.02210583      21563.9
        8374    0.8054631     2.771364   0.02337989     21563.88
      8374.2     0.803053     2.775767   0.02394362     21563.88
      8374.4     0.800842     2.780696     0.024158     21564.05
      8374.6    0.7988128     2.785909    0.0242041     21564.14
      8374.8    0.7969663      2.79069   0.02454082     21564.23
        8375    0.7953087      2.79513   0.02488395     21564.46
      8375.2    0.7938383     2.800329   0.02523337     21564.69
      8375.4    0.7925949     2.805816   0.02566423     21564.84
      8375.6    0.7916207     2.810877    0.0256984     21565.02
      8375.8    0.7909253     2.815661   0.02601799     21565.35
        8376    0.7904904     2.820888   0.02681406     21565.57
      8376.2    0.7903397      2.82663   0.02753556     21565.71
      8376.4    0.7905085     2.832328   0.02764027     21565.94
      8376.6    0.7909761      2.83769    0.0275546     21566.13
      8376.8    0.7917469        2.843   0.02807164     21566.35
        8377    0.7928221     2.848674   0.02951733     21566.62
      8377.2    0.7941749     2.854786    0.0312749     21566.77
      8377.4    0.7958201     2.861304   0.03240536     21566.94
      8377.6    0.7977541      2.86802   0.03253794     21567.15
      8377.8    0.7999458     2.874598   0.03136658     21567.24
        8378    0.8024058     2.880816   0.02929249     21567.29
      8378.2    0.8051121     2.886397   0.02780038     21567.34
      8378.4     0.808028     2.891454   0.02691246     21567.38
      8378.6    0.8111663     2.896838   0.02627267     21567.47
      8378.8     0.814518     2.902346   0.02602051     21567.59
        8379    0.8180723     2.907415   0.02548068      21567.7
      8379.2    0.8218344      2.91227   0.02483168     21567.76
      8379.4    0.8257614     2.917223   0.02448864     21567.83
      8379.6    0.8298084     2.922211   0.02459893     21567.95
      8379.8    0.8339715     2.927006   0.02406017     21568.11
        8380    0.8382863     2.931949   0.02196318      21568.3
      8380.2    0.8427806     2.936471   0.01978113      21568.4
      8380.4    0.8474345     2.939782   0.01770947     21568.43
      8380.6    0.8521608     2.942831   0.01579388     21568.78
      8380.8    0.8568729     2.946117   0.01414064     21569.17
        8381    0.8615846     2.949106   0.01294336     21569.23
      8381.2    0.8664313     2.951094   0.01190282     21569.27
      8381.4    0.8714258     2.953185   0.00995934     21569.45
      8381.6    0.8764788     2.955639   0.00851096     21569.61
      8381.8    0.8814889     2.957074  0.006220727      21569.5
        8382    0.8864499     2.957903   0.00230755     21569.34
      8382.2    0.8914159     2.958162  -0.00036829     21569.19
      8382.4    0.8964386     2.957485 -0.002378575     21568.94
      8382.6    0.9014882     2.956779 -0.004429813     21568.82
      8382.8     0.906486        2.956 -0.005802623     21568.76
        8383    0.9113802     2.954618   -0.0074975     21568.54
      8383.2    0.9162001     2.952843 -0.009148375     21568.29
      8383.4    0.9209519     2.950781  -0.00970268     21568.15
      8383.6    0.9256246     2.948682  -0.01004845     21568.13
      8383.8    0.9302115     2.946856  -0.01061145     21568.17
        8384    0.9347113     2.944804  -0.01171604     21568.16
      8384.2    0.9391388     2.942292  -0.01453672     21568.05
      8384.4     0.943506     2.939309  -0.01779363      21567.8
      8384.6     0.947786     2.935227  -0.02019516     21567.52
      8384.8    0.9519657     2.930569  -0.02231202     21567.28
        8385    0.9560715     2.926136  -0.02327366     21567.04
      8385.2    0.9601602     2.921459  -0.02341469     21566.69
      8385.4    0.9642485     2.916608  -0.02391179     21566.23
      8385.6    0.9683186     2.911838  -0.02441335     21565.81
      8385.8    0.9723426     2.907006  -0.02478672      21565.6
        8386    0.9763107     2.901928   -0.0250612     21565.34
      8386.2    0.9802704     2.896778  -0.02571723     21564.98
      8386.4    0.9843017     2.891789  -0.02661948      21564.7
      8386.6    0.9884129     2.886432  -0.02742134     21564.34
      8386.8    0.9925586     2.880633  -0.02807303     21563.92
        8387    0.9966956     2.874841  -0.02813963     21563.65
      8387.2     1.000854      2.86933  -0.02793818     21563.52
      8387.4     1.005113     2.863921  -0.02819419     21563.28
      8387.6     1.009529     2.858282  -0.02917072     21562.84
      8387.8     1.014079     2.852286  -0.03015906     21562.41
        8388     1.018708     2.845994  -0.03037757     21562.15
      8388.2     1.023365     2.839794   -0.0303895     21561.95
      8388.4     1.028035      2.83398  -0.02997986     21561.66
      8388.6      1.03276     2.827974  -0.02888285     21561.52
      8388.8      1.03757      2.82201  -0.02832581     21561.47
        8389     1.042435     2.816687  -0.02792141     21561.27
      8389.2     1.047265      2.81132  -0.02722405     21561.03
      8389.4     1.052052     2.805637  -0.02617347     21560.86
      8389.6     1.056813      2.80023  -0.02533537     21560.73
      8389.8     1.061507     2.795748  -0.02474125     21560.57
        8390     1.066125     2.791051  -0.02363635     21560.42
      8390.2     1.070657     2.785844  -0.02406399     21560.31
      8390.4     1.075077     2.781321  -0.02482433     21560.12
      8390.6       1.0794     2.776497  -0.02428949     21559.93
      8390.8     1.083618     2.771192  -0.02407959     21559.77
        8391     1.087695     2.766413  -0.02312464     21559.59
      8391.2     1.091603     2.762058  -0.02161993     21559.34
      8391.4     1.095345     2.757998  -0.02175549     21559.13
      8391.6     1.098951     2.753896  -0.02264438        21559
      8391.8     1.102428     2.749008  -0.02284606     21558.84
        8392     1.105739     2.743942  -0.02183959     21558.71
      8392.2      1.10882     2.739721  -0.01991252     21558.64
      8392.4     1.111641     2.736424  -0.01842993     21558.47
      8392.6     1.114282     2.733078  -0.01788567     21558.46
      8392.8     1.116777     2.729198  -0.01750886     21558.57
        8393     1.119062     2.725412  -0.01654404     21558.48
      8393.2     1.121098     2.722417  -0.01531378     21558.47
      8393.4     1.122904     2.719843  -0.01417237     21558.59
      8393.6     1.124518     2.716947  -0.01366056     21558.68
      8393.8     1.125926     2.714074  -0.01329485     21558.76
        8394     1.127118     2.711489   -0.0122669     21558.84
      8394.2     1.128094     2.709207  -0.01118795     21558.86
      8394.4     1.128852     2.707134  -0.01033881     21558.83
      8394.6     1.129403     2.705124 -0.009545447      21558.8
      8394.8     1.129755     2.703218 -0.008911585     21558.83
        8395     1.129911     2.701571 -0.008230505     21558.95
      8395.2      1.12988     2.700004 -0.007202302     21559.04
      8395.4     1.129658      2.69854 -0.005947167     21559.11
      8395.6     1.129241     2.697456   -0.0047113      21559.2
      8395.8     1.128652     2.696813  -0.00386212     21559.16
        8396     1.127893     2.696235 -0.003406018      21559.1
      8396.2     1.126967      2.69545  -0.00358641     21559.18
      8396.4     1.125902     2.694731 -0.003620207     21559.25
      8396.6     1.124709     2.693944 -0.002377652     21559.27
      8396.8     1.123366     2.693339  -0.00137041     21559.27
        8397     1.121838     2.693548 -0.000996165     21559.22
      8397.2     1.120175     2.693635 -0.0008117375     21559.07
      8397.4      1.11843     2.693147  -0.00149103      21558.8
      8397.6     1.116611      2.69269 -0.002075595      21558.5
      8397.8       1.1147     2.692355  -0.00198802     21558.37
        8398     1.112664     2.691974 -0.001608865     21558.31
      8398.2     1.110514     2.691557 -0.001620783     21558.13
      8398.4     1.108341     2.691403  -0.00191468     21557.94
      8398.6     1.106151     2.691058 -0.001384525     21557.84
      8398.8     1.103907     2.690442 -0.001128705     21557.86
        8399     1.101604     2.690449 -0.001174272     21557.95
      8399.2     1.099233       2.6905 -0.0008948225     21558.05
      8399.4     1.096808     2.690119 -0.001543048     21558.06
      8399.6     1.094376     2.689727  -0.00258869     21557.99
      8399.8     1.091978     2.689214 -0.003315625     21557.93
        8400     1.089608     2.688429 -0.003936198     21557.95
      8400.2     1.087231     2.687466 -0.004275175     21557.94
      8400.4     1.084859     2.686578 -0.004247122     21557.84
      8400.6     1.082524     2.685794 -0.003899792     21557.83
      8400.8      1.08024     2.685031 -0.003447105     21557.97
        8401     1.077997     2.684347  -0.00300541     21557.94
      8401.2     1.075813      2.68382  -0.00270639     21557.83
      8401.4     1.073702      2.68339  -0.00262666     21557.89
      8401.6     1.071644     2.682866 -0.003032365     21558.05
      8401.8     1.069639     2.682245  -0.00384367     21558.03
        8402     1.067693     2.681394 -0.003826967     21557.94
      8402.2     1.065805     2.680315 -0.003040465     21558.07
      8402.4     1.063971     2.679804 -0.002215257     21558.16
      8402.6     1.062213     2.679813  -0.00142655     21558.13
      8402.8     1.060543     2.679622 -0.001414803     21558.17
        8403     1.058916     2.679174 -0.001925588     21558.18
      8403.2     1.057332     2.678673  -0.00206631      21558.2
      8403.4     1.055815     2.678272 -0.001567897      21558.3
      8403.6     1.054367     2.677969 -0.0006618125     21558.46
      8403.8      1.05302      2.67792  8.17125e-05     21558.68
        8404     1.051769     2.678143 0.0003314475     21558.84
      8404.2     1.050559     2.678338 -3.17775e-05     21558.82
      8404.4     1.049405     2.678234  -0.00046755     21558.87
      8404.6     1.048317     2.677894 -5.22475e-05     21559.02
      8404.8     1.047291     2.677769  0.001144925     21559.07
        8405     1.046356     2.678296  0.002411565     21559.13
      8405.2     1.045509      2.67915  0.003572055      21559.2
      8405.4     1.044712     2.679823  0.004282448     21559.21
      8405.6     1.043937     2.680627  0.004522075     21559.26
      8405.8     1.043193     2.681722  0.004342862      21559.3
        8406     1.042505     2.682768  0.004174908     21559.29
      8406.2     1.041869     2.683298   0.00417945      21559.3
      8406.4      1.04125     2.683967  0.004121505     21559.26
      8406.6     1.040635     2.685065  0.004859265     21559.16
      8406.8      1.04005     2.686065    0.0055448     21559.16
        8407     1.039493     2.687185  0.005426877     21559.29
      8407.2     1.038938     2.688403  0.005429293     21559.43
      8407.4     1.038365     2.689407  0.005514235     21559.47
      8407.6     1.037792     2.690408  0.005677628      21559.5
      8407.8      1.03723     2.691596   0.00607352     21559.56
        8408     1.036673     2.692945  0.006402145      21559.7
      8408.2     1.036112     2.694266    0.0066843     21559.92
      8408.4     1.035522      2.69553   0.00709307     21560.06
      8408.6     1.034902     2.696944  0.007019157     21560.03
      8408.8     1.034284     2.698619  0.006401572        21560
        8409     1.033672     2.699881  0.005915947     21559.93
      8409.2     1.033058     2.700651   0.00539023     21559.92
      8409.4     1.032429     2.701677  0.005361583     21560.12
      8409.6     1.031751     2.702931  0.005622202     21560.22
      8409.8      1.03104      2.70417  0.004987042     21560.18
        8410     1.030344     2.705149  0.003965777     21560.28
      8410.2     1.029663     2.705666  0.003534443     21560.58
      8410.4     1.028956     2.706104  0.003866343     21560.78
      8410.6     1.028192     2.706998  0.004405615     21560.73
      8410.8     1.027393     2.708242   0.00461986     21560.79
        8411     1.026585     2.709191   0.00473461        21561
      8411.2     1.025769       2.7098  0.004232487      21561.2
      8411.4     1.024927     2.710786  0.003876645     21561.31
      8411.6     1.024041     2.711628   0.00459096     21561.36
      8411.8      1.02312     2.712292  0.004923705     21561.44
        8412     1.022188     2.713473  0.004984838     21561.53
      8412.2     1.021235     2.714725  0.005058135     21561.41
      8412.4     1.020245     2.715616  0.005142423     21561.21
      8412.6     1.019223     2.716339   0.00591169     21561.15
      8412.8     1.018196     2.717587   0.00698217     21560.99
        8413     1.017155     2.719454  0.007080315     21560.81
      8413.2     1.016083     2.721202   0.00649871     21560.82
      8413.4     1.014993     2.722003   0.00612474     21560.94
      8413.6      1.01387     2.722785  0.006184573     21561.03
      8413.8     1.012723     2.724354  0.007475868     21561.04
        8414     1.011601     2.726149  0.008753608     21561.04
      8414.2     1.010487     2.727984  0.008930575     21561.03
      8414.4     1.009357     2.729788  0.008917608     21561.07
      8414.6     1.008204     2.731498  0.009071338     21561.14
      8414.8     1.007024     2.733283  0.009418455     21561.03
        8415     1.005836     2.735241  0.009990528      21560.9
      8415.2     1.004664     2.737323   0.01064709     21560.98
      8415.4     1.003501     2.739491   0.01080812     21560.83
      8415.6     1.002357     2.741801   0.00969451     21560.54
      8415.8     1.001225     2.743887  0.008759113     21560.38
        8416     1.000059     2.745079   0.00890264     21560.26
      8416.2    0.9989097     2.746498   0.00940831     21560.35
      8416.4    0.9978177     2.748923     0.010449     21560.64
      8416.6    0.9967445     2.751414   0.01082886     21560.77
      8416.8    0.9956689     2.753438   0.01024079     21560.89
        8417     0.994592     2.755161  0.009961625     21561.13
      8417.2    0.9935329     2.757116   0.01028536     21561.31
      8417.4    0.9925164     2.759383   0.01066361      21561.4
      8417.6    0.9915412     2.761666   0.01060986     21561.49
      8417.8    0.9905849     2.763692  0.009887722     21561.63
        8418    0.9896378     2.765604  0.008866057     21561.68
      8418.2    0.9887212     2.767293  0.008429472     21561.67
      8418.4    0.9878446     2.768759  0.008269572     21561.74
      8418.6    0.9869816     2.770435  0.008319248     21561.83
      8418.8    0.9861605     2.772219   0.00881531     21561.96
        8419    0.9853898     2.773949  0.009342693      21562.1
      8419.2     0.984626     2.775811  0.009894003     21562.05
      8419.4    0.9838853      2.77791   0.01050375     21561.86
      8419.6     0.983183     2.780134   0.01116487     21561.77
      8419.8    0.9824991     2.782352   0.01149927     21561.92
        8420    0.9818108     2.784743    0.0110267     21561.93
      8420.2    0.9811436     2.787109  0.009879662     21561.83
      8420.4    0.9805355     2.788956  0.008620787     21561.95
      8420.6     0.979962     2.790255   0.00809366     21562.15
      8420.8    0.9794097      2.79164  0.008370933     21562.25
        8421      0.97888     2.793584    0.0092612     21562.23
      8421.2     0.978368     2.795653   0.01015039      21562.3
      8421.4    0.9778698     2.797664   0.01056392     21562.52
      8421.6    0.9773927      2.79976   0.01050331     21562.77
      8421.8    0.9769537     2.802035   0.01016712     21562.86
        8422    0.9765497     2.804055   0.01017778      21562.8
      8422.2     0.976166     2.805798   0.01079333     21562.65
      8422.4    0.9757908     2.807902   0.01198654     21562.48
      8422.6    0.9754339      2.81067   0.01283507     21562.39
      8422.8    0.9751135     2.813644   0.01263838     21562.36
        8423    0.9748293     2.816066   0.01209338     21562.28
      8423.2     0.974545     2.818013   0.01233052      21562.2
      8423.4    0.9742673     2.820344   0.01305962     21562.14
      8423.6    0.9740184     2.823509   0.01349589     21562.09
      8423.8    0.9737845     2.826514    0.0127949     21562.15
        8424    0.9735603      2.82881   0.01117813     21562.28
      8424.2    0.9733383      2.83058   0.01024411     21562.44
      8424.4     0.973106     2.832451   0.01021531     21562.65
      8424.6    0.9728818     2.834709   0.01047209     21562.93
      8424.8    0.9726744     2.836982   0.01165646     21563.19
        8425     0.972465     2.838958   0.01305363     21563.29
      8425.2    0.9722438     2.841777   0.01347796     21563.31
      8425.4    0.9720231     2.845152   0.01399802     21563.38
      8425.6    0.9718168     2.847764   0.01353562     21563.56
      8425.8    0.9716043     2.850156   0.01217412     21563.64
        8426    0.9713799     2.852605   0.01163607     21563.53
      8426.2    0.9711394     2.854891     0.011754     21563.38
      8426.4    0.9708594     2.857073   0.01204348     21563.43
      8426.6    0.9705652      2.85956   0.01175635     21563.56
      8426.8    0.9702852      2.86224   0.01141348     21563.57
        8427    0.9700037     2.864296    0.0109935     21563.51
      8427.2      0.96971     2.866204   0.01024452     21563.62
      8427.4    0.9694017     2.868354   0.01064881     21563.92
      8427.6    0.9690861     2.870435   0.01176232     21564.15
      8427.8    0.9687801     2.872815   0.01267263      21564.3
        8428    0.9684715     2.875614   0.01358867     21564.43
      8428.2    0.9681255     2.878493   0.01380677     21564.53
      8428.4    0.9677413     2.881306    0.0129794      21564.6
      8428.6    0.9673399     2.883861   0.01159334     21564.73
      8428.8     0.966944     2.885997  0.009689017     21564.97
        8429    0.9665558     2.887767   0.00776421     21565.18
      8429.2    0.9661694     2.889058  0.006856395     21565.24
      8429.4    0.9657819     2.890072   0.00648186     21565.22
      8429.6    0.9654041     2.891483  0.006445555     21565.27
      8429.8    0.9650532     2.892953  0.007021535      21565.4
        8430     0.964718     2.894214   0.00714603     21565.51
      8430.2    0.9643625     2.895689  0.006772382     21565.55
      8430.4    0.9640038     2.897199  0.006094962     21565.39
      8430.6    0.9636591     2.898371  0.004971212     21565.16
      8430.8    0.9633276      2.89909   0.00385689      21565.1
        8431     0.963024     2.899666   0.00302982        21565
      8431.2    0.9627497     2.900285  0.002300842     21564.95
      8431.4    0.9624853     2.900794  0.001606585     21565.13
      8431.6    0.9622116     2.900931  0.001119345     21565.11
      8431.8    0.9619442     2.900952 0.0007161925      21564.9
        8432    0.9617046      2.90118   0.00060465     21564.78
      8432.2    0.9614817     2.901367    0.0002802     21564.74
      8432.4    0.9612822     2.901414 -0.001040463     21564.78
      8432.6    0.9611081     2.901176 -0.002874358     21564.88
      8432.8    0.9609454     2.900348 -0.004878095     21564.96
        8433    0.9608136     2.899068 -0.006725093     21564.99
      8433.2     0.960723     2.897512 -0.007523833     21564.98
      8433.4    0.9606608     2.895796 -0.007699675        21565
      8433.6    0.9606331     2.894329 -0.008087928     21564.92
      8433.8    0.9606296     2.892908 -0.008300813     21564.83
        8434    0.9606407     2.891042 -0.009091713     21564.93
      8434.2    0.9607056     2.889155  -0.01067273     21565.07
      8434.4    0.9608212     2.887056  -0.01166689     21565.14
      8434.6    0.9609569      2.88437  -0.01240252     21565.17
      8434.8    0.9611214     2.881708  -0.01287536     21565.25
        8435     0.961329     2.879233  -0.01256307     21565.34
      8435.2    0.9615867     2.876755  -0.01186518     21565.36
      8435.4    0.9618906      2.87432  -0.01152564     21565.43
      8435.6    0.9622293     2.872216   -0.0124495     21565.41
      8435.8    0.9625921     2.870013  -0.01339169     21565.28
        8436    0.9629809     2.866796  -0.01416408     21565.25
      8436.2    0.9634145     2.863606  -0.01529686     21565.19
      8436.4    0.9638912     2.860885  -0.01546321     21565.01
      8436.6    0.9643899     2.857775  -0.01522459      21564.8
      8436.8     0.964922     2.854425   -0.0149093     21564.55
        8437    0.9655078     2.851427   -0.0144873     21564.35
      8437.2    0.9661473     2.848957   -0.0144311     21564.25
      8437.4    0.9668076     2.846185  -0.01492467     21563.98
      8437.6    0.9674946      2.84288  -0.01570727     21563.66
      8437.8    0.9682347     2.839487   -0.0158486     21563.57
        8438    0.9690218     2.836391  -0.01527536      21563.6
      8438.2    0.9698405     2.833506  -0.01452404     21563.64
      8438.4    0.9706735      2.83066  -0.01450453     21563.68
      8438.6    0.9715155     2.827868  -0.01512353     21563.68
      8438.8     0.972398     2.824788  -0.01557457     21563.62
        8439    0.9733318     2.821407  -0.01598871     21563.56
      8439.2    0.9742887       2.8182   -0.0160756     21563.57
      8439.4    0.9752713     2.815077  -0.01591546     21563.61
      8439.6    0.9762827     2.811927   -0.0165804     21563.66
      8439.8    0.9773168     2.808675   -0.0173669     21563.67
        8440    0.9783815     2.804936  -0.01752212     21563.57
      8440.2    0.9794882     2.801183   -0.0181392     21563.44
      8440.4    0.9806331      2.79791  -0.01819459     21563.46
      8440.6    0.9817871     2.794164   -0.0174153     21563.49
      8440.8    0.9829482      2.79038  -0.01761523     21563.43
        8441    0.9841218     2.787251  -0.01798036     21563.31
      8441.2    0.9852896     2.783817  -0.01854925     21563.32
      8441.4     0.986456     2.779779  -0.01953746     21563.52
      8441.6    0.9876243     2.775541  -0.01965595     21563.79
      8441.8    0.9887786     2.771621  -0.01874163     21563.86
        8442    0.9899232     2.768093  -0.01755413     21563.79
      8442.2    0.9910657     2.764786  -0.01690859     21563.85
      8442.4    0.9922004     2.761498  -0.01673517     21564.19
      8442.6    0.9933148     2.758094  -0.01656597      21564.5
      8442.8    0.9944126     2.754705  -0.01634972     21564.63
        8443    0.9955109     2.751533  -0.01580918     21564.76
      8443.2    0.9966079     2.748418  -0.01505878     21564.91
      8443.4    0.9976755     2.745447  -0.01503683     21565.02
      8443.6    0.9986884     2.742658  -0.01526018     21565.05
      8443.8    0.9996618     2.739504    -0.015186     21565.04
        8444     1.000601      2.73621  -0.01501086     21564.99
      8444.2     1.001513     2.733298  -0.01436847     21564.91
      8444.4     1.002419     2.730649  -0.01384683     21564.84
      8444.6      1.00329     2.728009  -0.01409529     21564.76
      8444.8     1.004097     2.725132  -0.01416837     21564.68
        8445     1.004854     2.722022  -0.01339734     21564.68
      8445.2     1.005576     2.719314  -0.01212514     21564.69
      8445.4     1.006254     2.717291  -0.01092613     21564.68
      8445.6      1.00687     2.715432  -0.01068982      21564.7
      8445.8     1.007439     2.713281   -0.0114401     21564.72
        8446     1.007971     2.710762  -0.01225569     21564.74
      8446.2     1.008458     2.708139  -0.01243696      21564.8
      8446.4     1.008888     2.705628  -0.01197879     21564.82
      8446.6      1.00926     2.703331   -0.0114398     21564.72
      8446.8     1.009582     2.701179  -0.01090728     21564.55
        8447     1.009863     2.698987   -0.0104379     21564.48
      8447.2      1.01009     2.696902   -0.0104534     21564.39
      8447.4     1.010255     2.694981  -0.01052671     21564.17
      8447.6     1.010387     2.692817   -0.0104597     21564.12
      8447.8     1.010483     2.690566    -0.010483     21564.13
        8448     1.010532     2.688534  -0.01048678     21564.01
      8448.2      1.01053     2.686594  -0.01055409     21563.84
      8448.4     1.010467     2.684427  -0.01051044     21563.54
      8448.6     1.010354     2.682123  -0.01055901     21563.16
      8448.8     1.010221     2.680126  -0.01059187     21562.94
        8449     1.010058     2.678147  -0.01070672     21562.77
      8449.2     1.009847     2.675954   -0.0116985     21562.54
      8449.4     1.009586     2.673557  -0.01291602     21562.31
      8449.6     1.009274     2.670767   -0.0135426     21562.14
      8449.8     1.008922     2.667814  -0.01379981     21562.05
        8450     1.008552      2.66512  -0.01384281     21562.02
        8452       1.0034     2.633541  -0.01709086     21561.94
        8454    0.9966223     2.600392  -0.01719046     21561.59
        8456    0.9892531     2.575137 -0.007255117     21561.08
        8458    0.9823176     2.557844 -0.004369365     21560.16
        8460    0.9769445     2.552242 -0.0007132747     21559.34
        8462    0.9737555     2.556748  0.003794896     21559.07
        8464    0.9731042     2.569431  0.007071114     21559.06
        8466    0.9759645     2.588203  0.008927935     21558.09
        8468    0.9831031      2.60881  0.009221985     21557.46
        8470    0.9940557     2.628171  0.007897179     21557.71
        8472     1.007239     2.643207  0.005381105     21557.89
        8474     1.020809     2.651381  0.002285961     21558.12
        8476     1.033159     2.651859 -0.0005209527     21558.63
        8478     1.042514     2.646459 -0.001726622     21558.38
        8480     1.047718     2.639039 -0.000507737      21557.9
        8482     1.048784     2.637568  0.003057703     21557.78
        8484     1.046658     2.647797  0.008113999     21557.24
        8486     1.042554     2.670921   0.01286365     21556.72
        8488     1.037703     2.703951   0.01543466     21556.35
        8490     1.033455     2.740477   0.01520765     21556.46
        8492     1.030227     2.771275   0.01251939     21557.06
        8494     1.027621     2.792582  0.008496122     21557.24
        8496     1.025263     2.804107  0.004458045     21557.07
        8498     1.022764     2.808446 0.0008124926     21556.86
        8500     1.019809     2.806939 -0.002549029     21556.78
        8502     1.016421     2.799082 -0.005919391     21556.43
        8504      1.01265     2.783714 -0.009546113     21555.93
        8506     1.008593     2.761091  -0.01330639      21555.5
        8508     1.004439      2.73057  -0.01670611      21555.5
        8510     1.000108     2.692631  -0.01966328     21555.02
        8512    0.9954557     2.650065  -0.02180557     21553.71
        8514    0.9906877     2.603785   -0.0226467     21552.97
        8516    0.9858299     2.556126   -0.0218893     21552.72
        8518    0.9810617     2.511457  -0.01936816     21552.12
        8520    0.9767301     2.474951   -0.0150813     21552.12
        8522    0.9729094     2.448839 -0.009535375      21552.6
        8524    0.9698288     2.435475 -0.003518212     21552.37
        8526    0.9681839     2.435174   0.00220016     21551.71
        8528    0.9683925     2.446805  0.006656765     21551.22
        8530    0.9705781     2.466441  0.009548298     21551.45
        8532    0.9746143     2.488729   0.01067145     21551.29
        8534    0.9802871      2.51156   0.01032359     21550.88
        8536    0.9870704     2.532177  0.009165676     21551.28
        8538    0.9941328     2.549029  0.007191746     21551.44
        8540     1.000877     2.562055  0.004755908     21550.81
        8542     1.006836     2.569094  0.002283265     21549.58
        8544     1.011691     2.570224 -4.114985e-05     21548.38
        8546     1.015293     2.567296 -0.001698697      21547.6
        8548       1.0176     2.561725 -0.002684627     21547.02
        8550     1.018712     2.555505 -0.003359044     21546.12
        8552     1.018827     2.548747 -0.003712608     21544.71
        8554     1.018326     2.540423 -0.004042649     21543.94
        8556     1.017375     2.532025 -0.004328765     21543.39
        8558     1.016015     2.523163 -0.004107001     21541.68
        8560     1.014469     2.514117 -0.003107509     21539.95
        8562     1.012944     2.507567 -0.001119822     21538.69
        8564     1.011469     2.507165   0.00153646     21538.01
        8566     1.010182     2.514205  0.004333873      21537.4
        8568     1.009146     2.526409  0.006473962     21537.03
        8570      1.00823     2.542238   0.00737316     21535.93
        8572     1.007318     2.558956  0.007170902      21534.9
        8574      1.00638      2.57319   0.00613894     21534.15
        8576     1.005323     2.583776  0.004589477     21533.18
        8578     1.004291      2.59135  0.002817989     21533.26
        8580     1.003472     2.595672 0.0009953753     21532.93
        8582     1.002784     2.595734 -0.0008702612     21532.19
        8584     1.002371     2.591739 -0.002953618     21531.05
        8586     1.002354     2.584388 -0.005180331     21529.72
        8588     1.002598     2.572043 -0.007246394     21529.01
        8590     1.002957     2.554291 -0.009129575      21527.9
        8592     1.003127     2.533768  -0.01053834     21526.75
        8594     1.002924     2.511351  -0.01121603     21526.12
        8596     1.002332     2.487736  -0.01129573     21524.96
        8598     1.001346     2.464563  -0.01070356     21523.11
        8600     1.000009     2.443402 -0.009515949     21521.01
        8602    0.9985946     2.425723 -0.007951791     21519.96
        8604     0.997231     2.411609 -0.006209547     21519.14
        8606     0.995842     2.400949 -0.004524765     21517.81
        8608    0.9946745     2.393726 -0.003054744     21517.01
        8610    0.9939013     2.389524 -0.001889277     21515.41
        8612      0.99351     2.387171 -0.001118042     21513.18
        8614    0.9936372     2.385835 -0.0008369169      21511.8
        8616    0.9942204     2.384781 -0.0007730681     21509.44
        8618    0.9950461     2.382829 -0.0007094548     21503.68
        8620    0.9960401     2.380986  -0.00105936     21488.68
        8622    0.9977571     2.380159 -0.001337038     21317.97
        8624    0.9981731     2.376306 -0.000949761     21049.16
        8626    0.9979054     2.372133 -0.0009387496     21193.94
        8628     1.000007     2.373388 -0.0003887321     21500.07
        8630     1.001066     2.372649 0.0004540187      21508.8
        8632     1.001879     2.373196 0.0006097048     21508.92
        8634     1.002488     2.375765 0.0009803151     21507.87
        8636     1.002811     2.378266  0.001240292      21507.2
        8638     1.002854     2.380492  0.001204194     21506.09
        8640     1.002648     2.383119  0.001134677     21504.86
        8642     1.002194     2.385398  0.001039775     21504.03
        8644     1.001563     2.387343 0.0007397368     21503.25
        8646     1.000935      2.38881  0.000442318     21501.46
        8648     1.000156     2.389037 0.0002267224     21499.44
        8650    0.9992296     2.388937 6.945245e-05     21498.53
        8652    0.9981272     2.389157 0.0001622405     21497.17
        8654    0.9968555     2.389365  0.000296729     21496.65
        8656    0.9954396     2.390335 0.0003919572     21495.81
        8658    0.9940783     2.391311 0.0005706019     21494.87
        8660    0.9929886     2.392293 0.0006532795     21493.73
        8662    0.9920991      2.39393 0.0006904292     21492.42
        8664    0.9916269     2.395561 0.0005886028     21491.07
        8666    0.9915802     2.396834  0.000189753     21490.06
        8668    0.9918087     2.397002 -0.0004323465     21488.56
        8670     0.992311     2.395448 -0.001301787     21486.78
        8672    0.9929983     2.392102 -0.002249493     21484.96
        8674    0.9937356      2.38642 -0.003013472     21482.63
        8676    0.9945178     2.379006 -0.003691294     21481.27
        8678    0.9952707      2.37134 -0.004273596     21480.18
        8680    0.9958206     2.362572 -0.004612007     21478.97
        8682    0.9962645     2.352231 -0.004867827     21478.13
        8684    0.9966856      2.34211 -0.004943523     21477.11
        8686    0.9970263     2.332398 -0.004604582     21476.25
        8688    0.9973933     2.323024 -0.004094372     21475.08
        8690    0.9978677     2.315395 -0.003491337     21474.23
        8692    0.9984201     2.309355 -0.002710532     21473.42
        8694    0.9989864     2.304467 -0.001979043     21472.27
        8696    0.9995975     2.301339 -0.001527752     21469.17
        8698      1.00023     2.299562 -0.001263437     21441.83
        8700     1.000813     2.297133  -0.00135258     21415.07
        8702     1.001405      2.29436 -0.001840869     21435.44
        8704     1.001919     2.290519 -0.002406539     21432.03
        8706     1.002316     2.284835 -0.003055841     21406.41
        8708     1.002676      2.27788 -0.003662417     21427.84
        8710     1.003231     2.269913 -0.003875243     21450.93
        8712     1.003688     2.261219 -0.003804236     21452.05
        8714     1.004033     2.253833 -0.003467287     21451.39
        8716     1.004176     2.247446 -0.002819026     21450.17
        8718     1.004116     2.242175 -0.002204296     21448.18
        8720     1.003987     2.238667 -0.001643937     21446.06
        8722     1.003686     2.236199 -0.001292479     21444.33
        8724     1.003233     2.234295 -0.001143838     21443.17
        8726     1.002694     2.231835 -0.001062276     21441.86
        8728     1.002036     2.229516 -0.001048408      21440.2
        8730     1.001276     2.227701 -0.0009332009     21438.93
        8732     1.000447     2.225908 -0.0007993902     21437.13
        8734    0.9995403     2.224369 -0.0006851607     21435.14
        8736    0.9985116     2.223121 -0.0005779796     21433.52
        8738     0.997432     2.222219 -0.000460841     21432.17
        8740     0.996381     2.221284 -0.0003909858     21430.03
        8742    0.9953724     2.220682 -0.0003066102     21427.61
        8744    0.9945329     2.219993 -0.0001965516     21425.15
        8746    0.9939143     2.219767 -0.0001581909     21423.77
        8748    0.9934788     2.219711 -0.0001244376     21422.04
        8750    0.9933413     2.219417 -0.0001822487     21420.28
        8752     0.993485     2.218998 -0.0002368127     21418.02
        8754    0.9937644     2.218309 -0.0002959212     21415.75
        8756    0.9942097     2.217817 -0.0003303161     21413.58
        8758    0.9947136      2.21705 -0.000366892     21411.18
        8760    0.9951646     2.216355 -0.0004620384     21408.93
        8762     0.995563     2.215373 -0.0004953318     21407.44
        8764    0.9958374     2.214121 -0.0005670544     21405.47
        8766    0.9959547     2.213087 -0.0005849372     21403.29
        8768    0.9960136     2.211819 -0.0006052069      21400.7
        8770    0.9960652     2.210694 -0.0007207549     21398.44
        8772    0.9960998     2.209279 -0.0008594665     21396.62
        8774    0.9961268     2.207321 -0.001104811     21394.49
        8776    0.9962468     2.204943  -0.00136985     21391.66
        8778    0.9964053     2.201855   -0.0017089     21388.68
        8780    0.9965247      2.19832 -0.002072146      21385.4
        8782    0.9966743      2.19365  -0.00237391     21382.55
        8784    0.9967539     2.188366  -0.00265509     21380.46
        8786    0.9967958     2.182864 -0.002831347     21378.04
        8788    0.9969566     2.177079  -0.00296566     21375.08
        8790    0.9971336     2.170999 -0.002985967     21370.68
        8792    0.9972616     2.164641 -0.002929634     21366.03
        8794    0.9974776     2.158976 -0.002758985     21362.93
        8796    0.9977302     2.153642 -0.002498234     21360.45
        8798    0.9979307     2.148927 -0.002250452      21358.1
        8800    0.9981421     2.144655 -0.001962447     21355.42
        8802    0.9984626     2.140973 -0.001673756     21352.73
        8804    0.9987591     2.137943 -0.001451861     21349.71
        8806    0.9990306     2.135537 -0.001301784     21347.11
        8808    0.9994562      2.13304 -0.001200257     21343.99
        8810     0.999986     2.130559 -0.001210532     21339.92
        8812      1.00055     2.128341 -0.001222853     21335.19
        8814     1.001118     2.125853 -0.001289583     21331.03
        8816      1.00164     2.123257 -0.001390837     21327.14
        8818     1.002038     2.120242 -0.001518999     21322.97
        8820     1.002331     2.117214 -0.001690787     21317.45
        8822       1.0025     2.113701 -0.001829692     21309.59
        8824     1.002528     2.109731 -0.001996828     21297.63
        8826     1.002528     2.105604 -0.001874709     21279.71
        8828     1.002602     2.101239 -0.001830606     21235.54
        8830     1.003277     2.098703 -0.002436087     20925.08
        8832     1.003729     2.095086  -0.00251065     20380.24
        8834     1.001554     2.086116 -0.002299382     20439.57
        8836     1.000034     2.081154 -0.002247093     21041.86
        8838     1.001126     2.080308  -0.00153321     21311.55
        8840     1.001044     2.077109 -0.001345513     21319.87
        8842     1.000876      2.07385 -0.001662858     21318.27
        8844     1.000657      2.07039 -0.001685668     21315.81
        8846     1.000493     2.067005 -0.001704908     21313.02
        8848      1.00034     2.063624 -0.001672906     21309.66
        8850     1.000142     2.060211 -0.001599821     21306.67
        8852     1.000001     2.057007 -0.001498597     21304.16
        8854    0.9998369     2.054207 -0.001368733     21300.71
        8856    0.9995752     2.051635 -0.001245294     21296.88
        8858    0.9993377     2.049261  -0.00114125     21293.13
        8860    0.9991645     2.047044 -0.001042272     21289.03
        8862    0.9990646     2.045077 -0.0009225306      21285.3
        8864    0.9990745     2.043297 -0.0008074157      21282.3
        8866    0.9992164     2.041881 -0.0007041785     21279.71
        8868      0.99931     2.040585 -0.0006449002     21276.63
        8870    0.9993741     2.039443 -0.000582734     21274.11
        8872     0.999508     2.038138 -0.0005100387     21271.96
        8874    0.9996052     2.037219 -0.0004667612     21268.75
        8876    0.9996254     2.036505 -0.0003946905     21265.83
        8878    0.9996546     2.035709 -0.0003516301     21262.76
        8880     0.999653      2.03498 -0.0003643076     21259.25
        8882    0.9995913     2.034406 -0.0003496945     21255.96
        8884    0.9995601      2.03359 -0.0004043142      21252.8
        8886    0.9996207     2.032912 -0.0004798741     21249.74
        8888    0.9996788     2.031746 -0.0005628536     21246.23
        8890    0.9997407     2.030567 -0.0007398262     21243.59
        8892    0.9999004     2.029088 -0.0009068718     21240.75
        8894     1.000066     2.026993 -0.001098529     21237.25
        8896     1.000211     2.024491 -0.001335138     21233.63
        8898     1.000408     2.021779 -0.001597788     21230.72
        8900     1.000613     2.018406 -0.001819845     21228.27
        8902     1.000872     2.014211 -0.002022214     21225.46
        8904     1.001237     2.009932 -0.002166938      21221.8
        8906     1.001604     2.005601 -0.002219032     21217.56
        8908     1.001905     2.001071 -0.002247432     21215.08
        8910     1.002168     1.996458 -0.002215406     21212.57
        8912     1.002368     1.991953 -0.002128418     21208.88
        8914     1.002485     1.987878 -0.002023025     21205.59
        8916     1.002579     1.984044 -0.001907219     21202.53
        8918      1.00268     1.980274 -0.001819993     21199.34
        8920     1.002621     1.976695 -0.001764361     21195.99
        8922     1.002464     1.973318 -0.001687026     21192.46
        8924     1.002301     1.969929 -0.001613967     21188.49
        8926      1.00211     1.966778 -0.001581008     21185.51
        8928     1.001884     1.963783 -0.001512996     21182.12
        8930     1.001675      1.96067 -0.001453289     21179.18
        8932     1.001502     1.957825 -0.001407259     21176.35
        8934     1.001314     1.955152 -0.001390127     21170.77
        8936     1.001326     1.952525 -0.001409549     21092.49
        8938     1.001172     1.949549 -0.001347034     20988.85
        8940     1.000918     1.946548 -0.001372189     21049.36
        8942     1.001098     1.944375 -0.001327845     21139.46
        8944     1.001145     1.941547 -0.001291711     21141.98
        8946     1.001149     1.938926 -0.001362392     21139.22
        8948     1.001066     1.936215 -0.001375857     21135.55
        8950     1.001044     1.933476 -0.001418847     21132.53
        8952     1.000998     1.930541 -0.001411826      21129.1
        8954     1.000864     1.927575 -0.001429436      21124.9
        8956     1.000762      1.92492 -0.001423087     21120.45
        8958     1.000688     1.922041 -0.001457921        21117
        8960     1.000545     1.919156 -0.001515036     21112.53
        8962     1.000433     1.915912 -0.001521969        21108
        8964     1.000401       1.9128 -0.001544642     21103.59
        8966     1.000363     1.909865 -0.001503086     21099.04
        8968     1.000366     1.906799 -0.001494501     21094.11
        8970     1.000417     1.903887 -0.001492107     21089.45
